File: instron/independence/size/bad_l15w3_40_30/b_l15w1_40_30.txt
Thayer School of Engineering        Instron 4442 Mechanical Testing System
7/5/2018 7:28:53 AM

  Force (N)	Extension (mm)	Not Used	Not Used	Not Used	     Hour	    Minute	    Second
    0.5417 	    0.5090 	    7.0000 	   30.0000 	   48.2568
    0.4349 	    0.8270 	    7.0000 	   30.0000 	   48.8928
    0.5570 	    1.1335 	    7.0000 	   30.0000 	   49.5058
    0.5570 	    1.4380 	    7.0000 	   30.0000 	   50.1149
    0.4196 	    1.7155 	    7.0000 	   30.0000 	   50.6699
    0.5264 	    1.9270 	    7.0000 	   30.0000 	   51.0929
    0.4501 	    2.1230 	    7.0000 	   30.0000 	   51.4850
    0.3738 	    2.3185 	    7.0000 	   30.0000 	   51.8750
    0.4654 	    2.5255 	    7.0000 	   30.0000 	   52.2900
    0.5112 	    2.7220 	    7.0000 	   30.0000 	   52.6830
    0.4501 	    2.9155 	    7.0000 	   30.0000 	   53.0700
    0.4044 	    3.1215 	    7.0000 	   30.0000 	   53.4821
    0.5570 	    3.2990 	    7.0000 	   30.0000 	   53.8371
    0.3433 	    3.5010 	    7.0000 	   30.0000 	   54.2411
    0.4349 	    3.7000 	    7.0000 	   30.0000 	   54.6391
    0.4807 	    3.8830 	    7.0000 	   30.0000 	   55.0052
    0.5417 	    4.0855 	    7.0000 	   30.0000 	   55.4102
    0.5417 	    4.2680 	    7.0000 	   30.0000 	   55.7752
    0.7401 	    4.4725 	    7.0000 	   30.0000 	   56.1842
    0.4959 	    4.6710 	    7.0000 	   30.0000 	   56.5812
    0.5875 	    4.8565 	    7.0000 	   30.0000 	   56.9523
    0.5112 	    5.0585 	    7.0000 	   30.0000 	   57.3563
    0.6180 	    5.2545 	    7.0000 	   30.0000 	   57.7483
    0.1755 	    5.4585 	    7.0000 	   30.0000 	   58.1563
    0.4654 	    5.6625 	    7.0000 	   30.0000 	   58.5644
    0.5417 	    5.8545 	    7.0000 	   30.0000 	   58.9484
    0.6180 	    6.0645 	    7.0000 	   30.0000 	   59.3684
    0.5570 	    6.2545 	    7.0000 	   30.0000 	   59.7484
    0.4959 	    6.4635 	    7.0000 	   31.0000 	    0.1665
    0.4501 	    6.6700 	    7.0000 	   31.0000 	    0.5795
    0.5112 	    6.8630 	    7.0000 	   31.0000 	    0.9655
    0.6027 	    7.0765 	    7.0000 	   31.0000 	    1.3925
    0.4807 	    7.2740 	    7.0000 	   31.0000 	    1.7875
    0.5112 	    7.4775 	    7.0000 	   31.0000 	    2.1946
    0.4959 	    7.6880 	    7.0000 	   31.0000 	    2.6156
    0.5875 	    7.8870 	    7.0000 	   31.0000 	    3.0136
    0.4654 	    8.0985 	    7.0000 	   31.0000 	    3.4366
    0.6638 	    8.2980 	    7.0000 	   31.0000 	    3.8347
    0.6027 	    8.5125 	    7.0000 	   31.0000 	    4.2637
    0.6180 	    8.7230 	    7.0000 	   31.0000 	    4.6847
    0.5722 	    8.9265 	    7.0000 	   31.0000 	    5.0917
    0.3586 	    9.1405 	    7.0000 	   31.0000 	    5.5198
    0.5570 	    9.3460 	    7.0000 	   31.0000 	    5.9308
    0.5875 	    9.5645 	    7.0000 	   31.0000 	    6.3678
    0.5722 	    9.7750 	    7.0000 	   31.0000 	    6.7888
    0.5570 	    9.9915 	    7.0000 	   31.0000 	    7.2219
    0.4807 	   10.2050 	    7.0000 	   31.0000 	    7.6489
    0.3281 	   10.4135 	    7.0000 	   31.0000 	    8.0659
    0.6790 	   10.6310 	    7.0000 	   31.0000 	    8.5009
    0.6332 	   10.8445 	    7.0000 	   31.0000 	    8.9280
    0.5112 	   11.0670 	    7.0000 	   31.0000 	    9.3730
    0.5112 	   11.2790 	    7.0000 	   31.0000 	    9.7970
    0.4807 	   11.5060 	    7.0000 	   31.0000 	   10.2510
    0.5570 	   11.7280 	    7.0000 	   31.0000 	   10.6951
    0.7248 	   11.9525 	    7.0000 	   31.0000 	   11.1441
    0.6332 	   12.1640 	    7.0000 	   31.0000 	   11.5671
    0.5264 	   12.3685 	    7.0000 	   31.0000 	   11.9761
    0.6790 	   12.5780 	    7.0000 	   31.0000 	   12.3952
    0.4349 	   12.7895 	    7.0000 	   31.0000 	   12.8182
    0.5264 	   13.0040 	    7.0000 	   31.0000 	   13.2472
    0.4807 	   13.2235 	    7.0000 	   31.0000 	   13.6862
    0.5112 	   13.4410 	    7.0000 	   31.0000 	   14.1213
    0.5875 	   13.6725 	    7.0000 	   31.0000 	   14.5843
    0.5417 	   13.8880 	    7.0000 	   31.0000 	   15.0153
    0.6332 	   14.1165 	    7.0000 	   31.0000 	   15.4723
    0.6485 	   14.3350 	    7.0000 	   31.0000 	   15.9094
    0.5875 	   14.5625 	    7.0000 	   31.0000 	   16.3644
    0.5875 	   14.7785 	    7.0000 	   31.0000 	   16.7964
    0.5264 	   15.0055 	    7.0000 	   31.0000 	   17.2504
    0.6943 	   15.2245 	    7.0000 	   31.0000 	   17.6885
    0.7858 	   15.4360 	    7.0000 	   31.0000 	   18.1115
    0.4654 	   15.6655 	    7.0000 	   31.0000 	   18.5705
    0.7553 	   15.8900 	    7.0000 	   31.0000 	   19.0195
    0.6180 	   16.1330 	    7.0000 	   31.0000 	   19.5056
    0.5875 	   16.3600 	    7.0000 	   31.0000 	   19.9596
    0.6332 	   16.6005 	    7.0000 	   31.0000 	   20.4406
    0.7095 	   16.8230 	    7.0000 	   31.0000 	   20.8856
    0.6027 	   17.0530 	    7.0000 	   31.0000 	   21.3447
    0.6332 	   17.2810 	    7.0000 	   31.0000 	   21.8007
    0.6332 	   17.5075 	    7.0000 	   31.0000 	   22.2537
    0.4349 	   17.7325 	    7.0000 	   31.0000 	   22.7037
    0.3433 	   17.9610 	    7.0000 	   31.0000 	   23.1608
    0.6790 	   18.2045 	    7.0000 	   31.0000 	   23.6478
    0.7095 	   18.4265 	    7.0000 	   31.0000 	   24.0918
    0.6180 	   18.6725 	    7.0000 	   31.0000 	   24.5839
    0.6180 	   18.8990 	    7.0000 	   31.0000 	   25.0369
    0.6485 	   19.1480 	    7.0000 	   31.0000 	   25.5349
    0.6790 	   19.3725 	    7.0000 	   31.0000 	   25.9839
    0.5722 	   19.6040 	    7.0000 	   31.0000 	   26.4470
    0.6790 	   19.8335 	    7.0000 	   31.0000 	   26.9060
    0.6027 	   20.0755 	    7.0000 	   31.0000 	   27.3900
    0.6180 	   20.3095 	    7.0000 	   31.0000 	   27.8580
    0.6485 	   20.5615 	    7.0000 	   31.0000 	   28.3621
    0.6027 	   20.8015 	    7.0000 	   31.0000 	   28.8421
    0.3586 	   21.0505 	    7.0000 	   31.0000 	   29.3401
    0.5875 	   21.2925 	    7.0000 	   31.0000 	   29.8242
    0.6943 	   21.5425 	    7.0000 	   31.0000 	   30.3242
    0.6180 	   21.7830 	    7.0000 	   31.0000 	   30.8052
    0.6332 	   22.0275 	    7.0000 	   31.0000 	   31.2942
    0.6180 	   22.2785 	    7.0000 	   31.0000 	   31.7963
    0.4959 	   22.5205 	    7.0000 	   31.0000 	   32.2803
    0.6943 	   22.7715 	    7.0000 	   31.0000 	   32.7823
    0.6180 	   23.0195 	    7.0000 	   31.0000 	   33.2783
    0.6790 	   23.2745 	    7.0000 	   31.0000 	   33.7884
    0.4959 	   23.5150 	    7.0000 	   31.0000 	   34.2694
    0.5722 	   23.7635 	    7.0000 	   31.0000 	   34.7664
    0.6638 	   23.9950 	    7.0000 	   31.0000 	   35.2295
    0.5875 	   24.2335 	    7.0000 	   31.0000 	   35.7065
    0.6180 	   24.4760 	    7.0000 	   31.0000 	   36.1915
    0.6943 	   24.7380 	    7.0000 	   31.0000 	   36.7155
    0.6332 	   24.9880 	    7.0000 	   31.0000 	   37.2156
    0.6790 	   25.2395 	    7.0000 	   31.0000 	   37.7186
    0.6332 	   25.4810 	    7.0000 	   31.0000 	   38.2016
    0.6027 	   25.7210 	    7.0000 	   31.0000 	   38.6807
    0.7401 	   25.9595 	    7.0000 	   31.0000 	   39.1577
    0.6485 	   26.2165 	    7.0000 	   31.0000 	   39.6717
    0.7248 	   26.4550 	    7.0000 	   31.0000 	   40.1487
    0.7401 	   26.7020 	    7.0000 	   31.0000 	   40.6428
    0.7858 	   26.9435 	    7.0000 	   31.0000 	   41.1258
    0.6638 	   27.2120 	    7.0000 	   31.0000 	   41.6628
    0.5722 	   27.4670 	    7.0000 	   31.0000 	   42.1729
    0.6790 	   27.7350 	    7.0000 	   31.0000 	   42.7089
    0.3586 	   27.9810 	    7.0000 	   31.0000 	   43.2009
    0.6027 	   28.2460 	    7.0000 	   31.0000 	   43.7309
    0.5112 	   28.4900 	    7.0000 	   31.0000 	   44.2190
    0.6485 	   28.7535 	    7.0000 	   31.0000 	   44.7460
    0.6485 	   29.0035 	    7.0000 	   31.0000 	   45.2460
    0.5417 	   29.2705 	    7.0000 	   31.0000 	   45.7801
    0.7248 	   29.5145 	    7.0000 	   31.0000 	   46.2681
    0.6485 	   29.7655 	    7.0000 	   31.0000 	   46.7701
    0.4807 	   30.0175 	    7.0000 	   31.0000 	   47.2741
    0.6027 	   30.2700 	    7.0000 	   31.0000 	   47.7792
    0.6790 	   30.5140 	    7.0000 	   31.0000 	   48.2672
    0.6943 	   30.7700 	    7.0000 	   31.0000 	   48.7792
    0.7248 	   31.0220 	    7.0000 	   31.0000 	   49.2833
    0.6485 	   31.2755 	    7.0000 	   31.0000 	   49.7903
    0.6638 	   31.5215 	    7.0000 	   31.0000 	   50.2823
    0.6943 	   31.7850 	    7.0000 	   31.0000 	   50.8093
    0.6943 	   32.0520 	    7.0000 	   31.0000 	   51.3434
    0.6638 	   32.3120 	    7.0000 	   31.0000 	   51.8634
    0.8164 	   32.5720 	    7.0000 	   31.0000 	   52.3834
    0.7858 	   32.8270 	    7.0000 	   31.0000 	   52.8935
    0.7095 	   33.0965 	    7.0000 	   31.0000 	   53.4325
    0.6943 	   33.3460 	    7.0000 	   31.0000 	   53.9315
    0.6485 	   33.5990 	    7.0000 	   31.0000 	   54.4376
    0.6943 	   33.8580 	    7.0000 	   31.0000 	   54.9556
    0.5722 	   34.1340 	    7.0000 	   31.0000 	   55.5076
    0.7248 	   34.3905 	    7.0000 	   31.0000 	   56.0196
    0.7401 	   34.6655 	    7.0000 	   31.0000 	   56.5697
    0.8011 	   34.9260 	    7.0000 	   31.0000 	   57.0907
    0.6332 	   35.1925 	    7.0000 	   31.0000 	   57.6237
    0.8469 	   35.4500 	    7.0000 	   31.0000 	   58.1388
    0.6485 	   35.7235 	    7.0000 	   31.0000 	   58.6848
    0.6943 	   35.9845 	    7.0000 	   31.0000 	   59.2078
    0.6638 	   36.2650 	    7.0000 	   31.0000 	   59.7689
    0.6790 	   36.5340 	    7.0000 	   32.0000 	    0.3069
    0.7553 	   36.8005 	    7.0000 	   32.0000 	    0.8399
    0.7553 	   37.0820 	    7.0000 	   32.0000 	    1.4030
    0.8011 	   37.3565 	    7.0000 	   32.0000 	    1.9520
    0.5570 	   37.6420 	    7.0000 	   32.0000 	    2.5230
    0.7706 	   37.9140 	    7.0000 	   32.0000 	    3.0671
    0.7095 	   38.1810 	    7.0000 	   32.0000 	    3.6011
    0.8469 	   38.4545 	    7.0000 	   32.0000 	    4.1481
    0.7553 	   38.7365 	    7.0000 	   32.0000 	    4.7121
    0.9537 	   39.0045 	    7.0000 	   32.0000 	    5.2482
    0.6790 	   39.2790 	    7.0000 	   32.0000 	    5.7972
    0.7248 	   39.5545 	    7.0000 	   32.0000 	    6.3482
    0.7095 	   39.8315 	    7.0000 	   32.0000 	    6.9023
    0.7858 	   39.8755 	    7.0000 	   32.0000 	    6.9903