File: instron/independence/hysterisis/bad_l15w3/b_l15w3_40_60_nonstop.txt
Thayer School of Engineering        Instron 4442 Mechanical Testing System
7/5/2018 3:25:48 AM

  Force (N)	Extension (mm)	Not Used	Not Used	Not Used	     Hour	    Minute	    Second
    0.5570 	    1.0220 	    3.0000 	   26.0000 	   26.3322
    0.3891 	    2.2370 	    3.0000 	   26.0000 	   27.5472
    0.4501 	    3.3960 	    3.0000 	   26.0000 	   28.7053
    0.6943 	    4.2410 	    3.0000 	   26.0000 	   29.5503
    0.7858 	    5.0600 	    3.0000 	   26.0000 	   30.3694
    0.6790 	    5.8380 	    3.0000 	   26.0000 	   31.1474
    0.6332 	    6.6040 	    3.0000 	   26.0000 	   31.9135
    0.6943 	    7.4180 	    3.0000 	   26.0000 	   32.7275
    0.8316 	    8.2220 	    3.0000 	   26.0000 	   33.5316
    0.6943 	    8.9870 	    3.0000 	   26.0000 	   34.2966
    0.6485 	    9.7760 	    3.0000 	   26.0000 	   35.0857
    0.7553 	   10.5770 	    3.0000 	   26.0000 	   35.8867
    0.8316 	   11.4060 	    3.0000 	   26.0000 	   36.7158
    0.9079 	   12.2240 	    3.0000 	   26.0000 	   37.5338
    0.8164 	   12.9870 	    3.0000 	   26.0000 	   38.2968
    0.9232 	   13.8060 	    3.0000 	   26.0000 	   39.1159
    0.9232 	   14.6160 	    3.0000 	   26.0000 	   39.9259
    1.0758 	   15.4910 	    3.0000 	   26.0000 	   40.8010
    1.0605 	   16.3380 	    3.0000 	   26.0000 	   41.6480
    1.1521 	   17.1560 	    3.0000 	   26.0000 	   42.4661
    1.1521 	   17.9640 	    3.0000 	   26.0000 	   43.2741
    1.1368 	   18.7710 	    3.0000 	   26.0000 	   44.0812
    1.2284 	   19.5930 	    3.0000 	   26.0000 	   44.9032
    1.1215 	   20.4320 	    3.0000 	   26.0000 	   45.7423
    1.3352 	   21.2810 	    3.0000 	   26.0000 	   46.5903
    1.4267 	   22.1120 	    3.0000 	   26.0000 	   47.4214
    1.4115 	   22.8970 	    3.0000 	   26.0000 	   48.2064
    1.4267 	   23.7190 	    3.0000 	   26.0000 	   49.0285
    1.5030 	   24.5670 	    3.0000 	   26.0000 	   49.8765
    1.6251 	   25.4300 	    3.0000 	   26.0000 	   50.7396
    1.5488 	   26.2710 	    3.0000 	   26.0000 	   51.5806
    1.6861 	   27.1140 	    3.0000 	   26.0000 	   52.4237
    1.8997 	   27.9390 	    3.0000 	   26.0000 	   53.2487
    1.5946 	   28.8230 	    3.0000 	   26.0000 	   54.1327
    1.9455 	   29.6830 	    3.0000 	   26.0000 	   54.9928
    2.1592 	   30.5450 	    3.0000 	   26.0000 	   55.8548
    2.2049 	   31.3840 	    3.0000 	   26.0000 	   56.6939
    2.1439 	   32.2630 	    3.0000 	   26.0000 	   57.5729
    2.3270 	   33.1340 	    3.0000 	   26.0000 	   58.4440
    2.5559 	   33.9820 	    3.0000 	   26.0000 	   59.2920
    2.6474 	   34.8490 	    3.0000 	   27.0000 	    0.1591
    2.5864 	   35.7210 	    3.0000 	   27.0000 	    1.0311
    2.7848 	   36.6060 	    3.0000 	   27.0000 	    1.9162
    2.8611 	   37.5010 	    3.0000 	   27.0000 	    2.8112
    3.0594 	   38.4240 	    3.0000 	   27.0000 	    3.7333
    3.2425 	   39.3210 	    3.0000 	   27.0000 	    4.6303
    3.2273 	   40.2330 	    3.0000 	   27.0000 	    5.5424
    2.7237 	   41.1210 	    3.0000 	   27.0000 	    6.4305
    2.5559 	   42.0080 	    3.0000 	   27.0000 	    7.3175
    2.2202 	   42.8840 	    3.0000 	   27.0000 	    8.1936
    2.1439 	   43.7740 	    3.0000 	   27.0000 	    9.0836
    1.5488 	   44.6630 	    3.0000 	   27.0000 	    9.9727
    1.9303 	   45.5720 	    3.0000 	   27.0000 	   10.8817
    1.3962 	   46.4620 	    3.0000 	   27.0000 	   11.7718
    1.6861 	   47.3700 	    3.0000 	   27.0000 	   12.6798
    1.5335 	   48.2550 	    3.0000 	   27.0000 	   13.5649
    1.5640 	   49.1390 	    3.0000 	   27.0000 	   14.4489
    1.4115 	   50.0330 	    3.0000 	   27.0000 	   15.3430
    1.2589 	   50.9610 	    3.0000 	   27.0000 	   16.2710
    1.1826 	   51.8790 	    3.0000 	   27.0000 	   17.1881
    1.2894 	   52.7860 	    3.0000 	   27.0000 	   18.0961
    1.0452 	   53.7370 	    3.0000 	   27.0000 	   19.0472
    1.1063 	   54.6740 	    3.0000 	   27.0000 	   19.9842
    1.1673 	   55.5730 	    3.0000 	   27.0000 	   20.8833
    1.1063 	   56.4850 	    3.0000 	   27.0000 	   21.7943
    1.0300 	   57.4170 	    3.0000 	   27.0000 	   22.7264
    0.8621 	   58.3450 	    3.0000 	   27.0000 	   23.6544
    0.8164 	   59.2700 	    3.0000 	   27.0000 	   24.5795
    0.8774 	   60.2120 	    3.0000 	   27.0000 	   25.5215
    0.7706 	   61.1490 	    3.0000 	   27.0000 	   26.4586
    0.7858 	   62.1060 	    3.0000 	   27.0000 	   27.4157
    0.8927 	   63.0680 	    3.0000 	   27.0000 	   28.3777
    0.7553 	   64.0240 	    3.0000 	   27.0000 	   29.3338
    0.9995 	   64.9980 	    3.0000 	   27.0000 	   30.3078
    0.7401 	   65.9220 	    3.0000 	   27.0000 	   31.2319
    0.8774 	   66.9540 	    3.0000 	   27.0000 	   32.2639
    0.6332 	   67.9740 	    3.0000 	   27.0000 	   33.2840
    0.8164 	   68.9430 	    3.0000 	   27.0000 	   34.2530
    0.5875 	   69.9150 	    3.0000 	   27.0000 	   35.2251
    0.5875 	   70.8610 	    3.0000 	   27.0000 	   36.1712
    0.6332 	   71.8240 	    3.0000 	   27.0000 	   37.1342
    0.6790 	   72.8110 	    3.0000 	   27.0000 	   38.1213
    0.4501 	   73.8150 	    3.0000 	   27.0000 	   39.1243
    0.4044 	   74.8050 	    3.0000 	   27.0000 	   40.1144
    0.4654 	   75.7550 	    3.0000 	   27.0000 	   41.0644
    0.5112 	   76.7300 	    3.0000 	   27.0000 	   42.0395
    0.4959 	   77.7390 	    3.0000 	   27.0000 	   43.0485
    0.5570 	   78.7490 	    3.0000 	   27.0000 	   44.0586
    0.5112 	   79.7350 	    3.0000 	   27.0000 	   45.0447
    0.3738 	   80.7550 	    3.0000 	   27.0000 	   46.0647
    0.3738 	   81.7610 	    3.0000 	   27.0000 	   47.0708
    0.5875 	   82.7860 	    3.0000 	   27.0000 	   48.0958
    0.6638 	   83.7820 	    3.0000 	   27.0000 	   49.0919
    0.5722 	   84.7630 	    3.0000 	   27.0000 	   50.0729
    0.6485 	   85.7730 	    3.0000 	   27.0000 	   51.0830
    0.3281 	   86.7900 	    3.0000 	   27.0000 	   52.1001
    0.6485 	   87.8120 	    3.0000 	   27.0000 	   53.1221
    0.5722 	   88.8240 	    3.0000 	   27.0000 	   54.1342
    0.6485 	   89.8740 	    3.0000 	   27.0000 	   55.1842
    0.8774 	   90.9280 	    3.0000 	   27.0000 	   56.2373
    0.4196 	   91.9400 	    3.0000 	   27.0000 	   57.2494
    0.8774 	   92.9820 	    3.0000 	   27.0000 	   58.2914
    0.8164 	   94.0240 	    3.0000 	   27.0000 	   59.3335
    0.8469 	   95.0710 	    3.0000 	   28.0000 	    0.3805
    0.9537 	   96.0740 	    3.0000 	   28.0000 	    1.3836
    0.9842 	   97.1220 	    3.0000 	   28.0000 	    2.4317
    1.0758 	   98.1930 	    3.0000 	   28.0000 	    3.5027
    1.0605 	   99.2580 	    3.0000 	   28.0000 	    4.5678
    1.2131 	  100.3340 	    3.0000 	   28.0000 	    5.6438
    1.0300 	  101.3530 	    3.0000 	   28.0000 	    6.6629
    1.1826 	  102.4040 	    3.0000 	   28.0000 	    7.7140
    1.2436 	  103.4430 	    3.0000 	   28.0000 	    8.7530
    1.3657 	  104.4950 	    3.0000 	   28.0000 	    9.8051
    1.4420 	  105.5310 	    3.0000 	   28.0000 	   10.8411
    1.6251 	  106.6110 	    3.0000 	   28.0000 	   11.9212
    1.7472 	  107.6980 	    3.0000 	   28.0000 	   13.0083
    1.7166 	  108.8130 	    3.0000 	   28.0000 	   14.1223
    1.7777 	  109.8780 	    3.0000 	   28.0000 	   15.1874
    1.8235 	  110.9780 	    3.0000 	   28.0000 	   16.2874
    2.0523 	  112.0970 	    3.0000 	   28.0000 	   17.4065
    2.0066 	  113.1710 	    3.0000 	   28.0000 	   18.4806
    2.3117 	  114.2790 	    3.0000 	   28.0000 	   19.5886
    2.3270 	  115.4030 	    3.0000 	   28.0000 	   20.7127
    2.3270 	  116.4930 	    3.0000 	   28.0000 	   21.8028
    2.5559 	  117.5650 	    3.0000 	   28.0000 	   22.8748
    2.7237 	  118.6710 	    3.0000 	   28.0000 	   23.9809
    2.8763 	  119.8050 	    3.0000 	   28.0000 	   25.1150
    3.0137 	  120.9130 	    3.0000 	   28.0000 	   26.2230
    2.9984 	  122.0500 	    3.0000 	   28.0000 	   27.3601
    2.5406 	  123.1870 	    3.0000 	   28.0000 	   28.4971
    2.1286 	  124.3080 	    3.0000 	   28.0000 	   29.6182
    1.9760 	  125.4270 	    3.0000 	   28.0000 	   30.7373
    1.8692 	  126.5370 	    3.0000 	   28.0000 	   31.8463
    1.7624 	  127.6720 	    3.0000 	   28.0000 	   32.9814
    1.6861 	  128.7840 	    3.0000 	   28.0000 	   34.0935
    1.3962 	  129.9390 	    3.0000 	   28.0000 	   35.2485
    1.6098 	  131.1310 	    3.0000 	   28.0000 	   36.4406
    1.2284 	  132.2580 	    3.0000 	   28.0000 	   37.5677
    1.0910 	  133.4030 	    3.0000 	   28.0000 	   38.7127
    1.0452 	  134.5420 	    3.0000 	   28.0000 	   39.8518
    1.1063 	  135.6960 	    3.0000 	   28.0000 	   41.0059
    0.9384 	  136.8230 	    3.0000 	   28.0000 	   42.1329
    0.9232 	  137.9790 	    3.0000 	   28.0000 	   43.2880
    0.9537 	  139.1890 	    3.0000 	   28.0000 	   44.4991
    0.7858 	  140.3870 	    3.0000 	   28.0000 	   45.6971
    0.7553 	  141.5580 	    3.0000 	   28.0000 	   46.8682
    0.9384 	  142.7310 	    3.0000 	   28.0000 	   48.0413
    0.7553 	  143.9050 	    3.0000 	   28.0000 	   49.2143
    0.5875 	  145.0830 	    3.0000 	   28.0000 	   50.3924
    0.7706 	  146.2750 	    3.0000 	   28.0000 	   51.5845
    0.6180 	  147.4600 	    3.0000 	   28.0000 	   52.7695
    0.6790 	  148.6770 	    3.0000 	   28.0000 	   53.9866
    0.6638 	  149.8410 	    3.0000 	   28.0000 	   55.1507
    0.5417 	  151.0260 	    3.0000 	   28.0000 	   56.3357
    0.5112 	  152.2370 	    3.0000 	   28.0000 	   57.5468
    0.5875 	  153.4540 	    3.0000 	   28.0000 	   58.7639
    0.6027 	  154.6310 	    3.0000 	   28.0000 	   59.9409
    0.4349 	  155.8480 	    3.0000 	   29.0000 	    1.1580
    0.6180 	  157.0660 	    3.0000 	   29.0000 	    2.3761
    0.5417 	  158.2760 	    3.0000 	   29.0000 	    3.5862
    0.5264 	  159.4760 	    3.0000 	   29.0000 	    4.7862
    0.4654 	  160.6990 	    3.0000 	   29.0000 	    6.0093
    0.5875 	  161.9240 	    3.0000 	   29.0000 	    7.2334
    0.3433 	  163.1460 	    3.0000 	   29.0000 	    8.4554
    0.4349 	  163.2410 	    3.0000 	   29.0000 	    8.5504