File: instron/independence/hysterisis/bad_l15w3/bad_l15w3_40_30_nonstop.txt
Thayer School of Engineering        Instron 4442 Mechanical Testing System
7/4/2018 10:36:11 PM

  Force (N)	Extension (mm)	Not Used	Not Used	Not Used	     Hour	    Minute	    Second
    0.2823 	    0.5115 	   22.0000 	   36.0000 	   46.1531
    0.4196 	    1.1250 	   22.0000 	   36.0000 	   47.3801
    0.3586 	    1.6850 	   22.0000 	   36.0000 	   48.5002
    0.2823 	    2.0820 	   22.0000 	   36.0000 	   49.2943
    0.4654 	    2.4845 	   22.0000 	   36.0000 	   50.0993
    0.5264 	    2.8905 	   22.0000 	   36.0000 	   50.9113
    0.4044 	    3.2720 	   22.0000 	   36.0000 	   51.6734
    0.0229 	    3.6485 	   22.0000 	   36.0000 	   52.4264
    0.4959 	    4.0295 	   22.0000 	   36.0000 	   53.1885
    0.3586 	    4.4070 	   22.0000 	   36.0000 	   53.9435
    0.3433 	    4.7855 	   22.0000 	   36.0000 	   54.7006
    0.4196 	    5.1675 	   22.0000 	   36.0000 	   55.4646
    0.5112 	    5.5665 	   22.0000 	   36.0000 	   56.2626
    0.4959 	    5.9500 	   22.0000 	   36.0000 	   57.0287
    0.3891 	    6.3405 	   22.0000 	   36.0000 	   57.8107
    0.5264 	    6.7280 	   22.0000 	   36.0000 	   58.5858
    0.5112 	    7.1245 	   22.0000 	   36.0000 	   59.3788
    0.4807 	    7.5155 	   22.0000 	   37.0000 	    0.1609
    0.3586 	    7.9145 	   22.0000 	   37.0000 	    0.9589
    0.5264 	    8.3095 	   22.0000 	   37.0000 	    1.7490
    0.4959 	    8.6815 	   22.0000 	   37.0000 	    2.4930
    0.3738 	    9.0865 	   22.0000 	   37.0000 	    3.3031
    0.5570 	    9.4860 	   22.0000 	   37.0000 	    4.1021
    0.4501 	    9.8875 	   22.0000 	   37.0000 	    4.9051
    0.5112 	   10.2950 	   22.0000 	   37.0000 	    5.7202
    0.5722 	   10.6835 	   22.0000 	   37.0000 	    6.4972
    0.4196 	   11.0875 	   22.0000 	   37.0000 	    7.3053
    0.5875 	   11.4895 	   22.0000 	   37.0000 	    8.1093
    0.5570 	   11.9060 	   22.0000 	   37.0000 	    8.9424
    0.5417 	   12.2970 	   22.0000 	   37.0000 	    9.7234
    0.6180 	   12.6705 	   22.0000 	   37.0000 	   10.4705
    0.5112 	   13.0715 	   22.0000 	   37.0000 	   11.2725
    0.5417 	   13.4855 	   22.0000 	   37.0000 	   12.1006
    0.6790 	   13.9140 	   22.0000 	   37.0000 	   12.9576
    0.6943 	   14.3420 	   22.0000 	   37.0000 	   13.8137
    0.7401 	   14.7450 	   22.0000 	   37.0000 	   14.6197
    0.6790 	   15.1350 	   22.0000 	   37.0000 	   15.3997
    0.7401 	   15.5475 	   22.0000 	   37.0000 	   16.2248
    0.6485 	   15.9775 	   22.0000 	   37.0000 	   17.0848
    0.6332 	   16.3835 	   22.0000 	   37.0000 	   17.8969
    0.6027 	   16.7710 	   22.0000 	   37.0000 	   18.6719
    0.7858 	   17.1880 	   22.0000 	   37.0000 	   19.5060
    0.5264 	   17.6270 	   22.0000 	   37.0000 	   20.3840
    0.2365 	   18.0515 	   22.0000 	   37.0000 	   21.2331
    0.5722 	   18.4485 	   22.0000 	   37.0000 	   22.0271
    0.8621 	   18.8650 	   22.0000 	   37.0000 	   22.8602
    0.7553 	   19.2815 	   22.0000 	   37.0000 	   23.6932
    0.3738 	   19.7095 	   22.0000 	   37.0000 	   24.5493
    0.6332 	   20.1290 	   22.0000 	   37.0000 	   25.3883
    0.8011 	   20.5310 	   22.0000 	   37.0000 	   26.1924
    0.8469 	   20.9770 	   22.0000 	   37.0000 	   27.0834
    0.7858 	   21.4130 	   22.0000 	   37.0000 	   27.9555
    0.7095 	   21.8480 	   22.0000 	   37.0000 	   28.8255
    0.7553 	   22.2635 	   22.0000 	   37.0000 	   29.6566
    0.9232 	   22.7020 	   22.0000 	   37.0000 	   30.5336
    0.8011 	   23.1580 	   22.0000 	   37.0000 	   31.4457
    0.9079 	   23.6140 	   22.0000 	   37.0000 	   32.3577
    0.9995 	   24.0675 	   22.0000 	   37.0000 	   33.2648
    1.1368 	   24.5140 	   22.0000 	   37.0000 	   34.1578
    1.0300 	   24.9350 	   22.0000 	   37.0000 	   34.9999
    1.0300 	   25.3560 	   22.0000 	   37.0000 	   35.8419
    1.0758 	   25.8030 	   22.0000 	   37.0000 	   36.7360
    0.8927 	   26.2485 	   22.0000 	   37.0000 	   37.6270
    1.2131 	   26.7125 	   22.0000 	   37.0000 	   38.5551
    1.2131 	   27.1500 	   22.0000 	   37.0000 	   39.4301
    1.1368 	   27.6070 	   22.0000 	   37.0000 	   40.3442
    1.1063 	   28.0440 	   22.0000 	   37.0000 	   41.2182
    1.1215 	   28.5165 	   22.0000 	   37.0000 	   42.1633
    1.3657 	   28.9850 	   22.0000 	   37.0000 	   43.1003
    0.8927 	   29.4460 	   22.0000 	   37.0000 	   44.0224
    1.0758 	   29.8925 	   22.0000 	   37.0000 	   44.9144
    1.2741 	   30.3370 	   22.0000 	   37.0000 	   45.8035
    1.3352 	   30.8015 	   22.0000 	   37.0000 	   46.7325
    1.3504 	   31.2715 	   22.0000 	   37.0000 	   47.6726
    1.5335 	   31.7410 	   22.0000 	   37.0000 	   48.6116
    1.4420 	   32.2095 	   22.0000 	   37.0000 	   49.5487
    1.5946 	   32.6865 	   22.0000 	   37.0000 	   50.5028
    1.3352 	   33.1685 	   22.0000 	   37.0000 	   51.4668
    1.5946 	   33.6030 	   22.0000 	   37.0000 	   52.3359
    1.6556 	   34.0565 	   22.0000 	   37.0000 	   53.2429
    1.7166 	   34.5220 	   22.0000 	   37.0000 	   54.1740
    1.7624 	   34.9730 	   22.0000 	   37.0000 	   55.0760
    1.7929 	   35.4565 	   22.0000 	   37.0000 	   56.0431
    1.7166 	   35.9265 	   22.0000 	   37.0000 	   56.9831
    1.8387 	   36.4020 	   22.0000 	   37.0000 	   57.9342
    1.8845 	   36.8830 	   22.0000 	   37.0000 	   58.8952
    1.5030 	   37.3585 	   22.0000 	   37.0000 	   59.8473
    2.0218 	   37.8345 	   22.0000 	   38.0000 	    0.7993
    1.9760 	   38.3205 	   22.0000 	   38.0000 	    1.7714
    1.9608 	   38.8070 	   22.0000 	   38.0000 	    2.7435
    2.0676 	   39.2960 	   22.0000 	   38.0000 	    3.7215
    2.1134 	   39.7515 	   22.0000 	   38.0000 	    4.6326
    1.9913 	   40.2080 	   22.0000 	   38.0000 	    5.5456
    1.7624 	   40.6945 	   22.0000 	   38.0000 	    6.5187
    1.6403 	   41.1805 	   22.0000 	   38.0000 	    7.4907
    1.6251 	   41.6710 	   22.0000 	   38.0000 	    8.4718
    1.6251 	   42.1655 	   22.0000 	   38.0000 	    9.4608
    1.3504 	   42.6400 	   22.0000 	   38.0000 	   10.4099
    1.2741 	   43.1275 	   22.0000 	   38.0000 	   11.3849
    1.3199 	   43.6065 	   22.0000 	   38.0000 	   12.3430
    1.1521 	   44.0805 	   22.0000 	   38.0000 	   13.2911
    1.2284 	   44.5500 	   22.0000 	   38.0000 	   14.2301
    1.1978 	   45.0295 	   22.0000 	   38.0000 	   15.1892
    1.0300 	   45.5255 	   22.0000 	   38.0000 	   16.1812
    1.2131 	   46.0175 	   22.0000 	   38.0000 	   17.1653
    1.0300 	   46.5275 	   22.0000 	   38.0000 	   18.1853
    0.7248 	   47.0340 	   22.0000 	   38.0000 	   19.1984
    0.8774 	   47.5155 	   22.0000 	   38.0000 	   20.1604
    0.8621 	   48.0235 	   22.0000 	   38.0000 	   21.1765
    0.9384 	   48.5375 	   22.0000 	   38.0000 	   22.2046
    1.0452 	   49.0300 	   22.0000 	   38.0000 	   23.1896
    0.8011 	   49.5035 	   22.0000 	   38.0000 	   24.1367
    0.6790 	   49.9905 	   22.0000 	   38.0000 	   25.1107
    0.8164 	   50.4690 	   22.0000 	   38.0000 	   26.0678
    0.6638 	   50.9725 	   22.0000 	   38.0000 	   27.0748
    0.8011 	   51.4825 	   22.0000 	   38.0000 	   28.0949
    0.7706 	   51.9830 	   22.0000 	   38.0000 	   29.0960
    0.6790 	   52.4955 	   22.0000 	   38.0000 	   30.1210
    0.6485 	   53.0025 	   22.0000 	   38.0000 	   31.1351
    0.6943 	   53.5070 	   22.0000 	   38.0000 	   32.1441
    0.6943 	   54.0280 	   22.0000 	   38.0000 	   33.1862
    0.5112 	   54.5630 	   22.0000 	   38.0000 	   34.2563
    0.6485 	   55.0805 	   22.0000 	   38.0000 	   35.2913
    0.6027 	   55.5810 	   22.0000 	   38.0000 	   36.2924
    0.6943 	   56.1035 	   22.0000 	   38.0000 	   37.3364
    0.2976 	   56.6270 	   22.0000 	   38.0000 	   38.3835
    0.5875 	   57.1345 	   22.0000 	   38.0000 	   39.3985
    0.3281 	   57.6295 	   22.0000 	   38.0000 	   40.3886
    0.4654 	   58.1820 	   22.0000 	   38.0000 	   41.4937
    0.5722 	   58.6915 	   22.0000 	   38.0000 	   42.5127
    0.5112 	   59.2125 	   22.0000 	   38.0000 	   43.5548
    0.5417 	   59.7270 	   22.0000 	   38.0000 	   44.5838
    0.5264 	   60.2575 	   22.0000 	   38.0000 	   45.6449
    0.6638 	   60.7760 	   22.0000 	   38.0000 	   46.6820
    0.4959 	   61.3125 	   22.0000 	   38.0000 	   47.7550
    0.6332 	   61.8600 	   22.0000 	   38.0000 	   48.8501
    0.5264 	   62.4065 	   22.0000 	   38.0000 	   49.9431
    0.4501 	   62.9350 	   22.0000 	   38.0000 	   51.0002
    0.4196 	   63.4880 	   22.0000 	   38.0000 	   52.1063
    0.1450 	   64.0375 	   22.0000 	   38.0000 	   53.2053
    0.4959 	   64.5730 	   22.0000 	   38.0000 	   54.2764
    0.5264 	   65.1190 	   22.0000 	   38.0000 	   55.3675
    0.3891 	   65.6530 	   22.0000 	   38.0000 	   56.4355
    0.4654 	   66.1970 	   22.0000 	   38.0000 	   57.5236
    0.4959 	   66.7385 	   22.0000 	   38.0000 	   58.6066
    0.4501 	   67.2790 	   22.0000 	   38.0000 	   59.6877
    0.4196 	   67.8375 	   22.0000 	   39.0000 	    0.8048
    0.1907 	   68.4050 	   22.0000 	   39.0000 	    1.9398
    0.1450 	   68.9635 	   22.0000 	   39.0000 	    3.0569
    0.3128 	   69.5155 	   22.0000 	   39.0000 	    4.1610
    0.3281 	   70.0750 	   22.0000 	   39.0000 	    5.2800
    0.3433 	   70.6060 	   22.0000 	   39.0000 	    6.3421
    0.3128 	   71.1685 	   22.0000 	   39.0000 	    7.4672
    0.2213 	   71.7015 	   22.0000 	   39.0000 	    8.5332
    0.4044 	   72.2755 	   22.0000 	   39.0000 	    9.6813
    0.2976 	   72.8190 	   22.0000 	   39.0000 	   10.7683
    0.2670 	   73.3900 	   22.0000 	   39.0000 	   11.9094
    0.2365 	   73.9330 	   22.0000 	   39.0000 	   12.9955
    0.4349 	   74.4940 	   22.0000 	   39.0000 	   14.1175
    0.4044 	   75.0595 	   22.0000 	   39.0000 	   15.2486
    0.2670 	   75.6160 	   22.0000 	   39.0000 	   16.3617
    0.2060 	   76.1890 	   22.0000 	   39.0000 	   17.5077
    0.3738 	   76.7645 	   22.0000 	   39.0000 	   18.6578
    0.2213 	   77.3445 	   22.0000 	   39.0000 	   19.8189
    0.0534 	   77.9040 	   22.0000 	   39.0000 	   20.9379
    0.2976 	   78.4890 	   22.0000 	   39.0000 	   22.1080
    0.2060 	   79.0640 	   22.0000 	   39.0000 	   23.2581
    0.2823 	   79.6115 	   22.0000 	   39.0000 	   24.3531
    0.1907 	   80.2000 	   22.0000 	   39.0000 	   25.5302
    0.1755 	   80.2905 	   22.0000 	   39.0000 	   25.7112