File: instron/independence/relaxation/bad_l15w3_30_60_pre10/b_l15w3_30_60_pre10_step.txt
Thayer School of Engineering        Instron 4442 Mechanical Testing System
7/5/2018 6:30:12 AM

  Force (N)	Extension (mm)	Not Used	Not Used	Not Used	     Hour	    Minute	    Second
    0.7553 	    1.0190 	    6.0000 	   31.0000 	   23.7059
    0.6943 	    2.0960 	    6.0000 	   31.0000 	   24.7830
    0.9232 	    3.1350 	    6.0000 	   31.0000 	   25.8220
    0.8316 	    3.8280 	    6.0000 	   31.0000 	   26.5151
    0.8469 	    4.4820 	    6.0000 	   31.0000 	   27.1691
    0.9384 	    5.0920 	    6.0000 	   31.0000 	   27.7791
    0.9232 	    5.7650 	    6.0000 	   31.0000 	   28.4522
    0.7553 	    6.4180 	    6.0000 	   31.0000 	   29.1052
    1.0147 	    7.0280 	    6.0000 	   31.0000 	   29.7152
    0.9842 	    7.6470 	    6.0000 	   31.0000 	   30.3343
    1.0910 	    8.2800 	    6.0000 	   31.0000 	   30.9673
    1.0910 	    8.9010 	    6.0000 	   31.0000 	   31.5883
    1.0910 	    9.5540 	    6.0000 	   31.0000 	   32.2414
    1.1368 	   10.1790 	    6.0000 	   31.0000 	   32.8664
    1.2741 	   10.8060 	    6.0000 	   31.0000 	   33.4935
    1.0605 	   11.4790 	    6.0000 	   31.0000 	   34.1665
    1.3199 	   12.1150 	    6.0000 	   31.0000 	   34.8025
    1.3657 	   12.7750 	    6.0000 	   31.0000 	   35.4626
    1.4115 	   13.4440 	    6.0000 	   31.0000 	   36.1316
    1.3809 	   14.0620 	    6.0000 	   31.0000 	   36.7496
    1.3199 	   14.7190 	    6.0000 	   31.0000 	   37.4067
    1.4725 	   15.3570 	    6.0000 	   31.0000 	   38.0437
    1.3352 	   15.9920 	    6.0000 	   31.0000 	   38.6787
    1.5183 	   16.6620 	    6.0000 	   31.0000 	   39.3488
    1.6403 	   17.2840 	    6.0000 	   31.0000 	   39.9708
    1.7929 	   17.9360 	    6.0000 	   31.0000 	   40.6229
    1.6098 	   18.6210 	    6.0000 	   31.0000 	   41.3079
    1.8387 	   19.2830 	    6.0000 	   31.0000 	   41.9699
    1.8387 	   19.9370 	    6.0000 	   31.0000 	   42.6240
    1.8387 	   20.6330 	    6.0000 	   31.0000 	   43.3200
    1.8997 	   21.2860 	    6.0000 	   31.0000 	   43.9731
    1.9455 	   21.9170 	    6.0000 	   31.0000 	   44.6041
    2.0829 	   22.6200 	    6.0000 	   31.0000 	   45.3071
    2.2354 	   23.2840 	    6.0000 	   31.0000 	   45.9712
    2.3880 	   23.9150 	    6.0000 	   31.0000 	   46.6022
    2.2507 	   24.6060 	    6.0000 	   31.0000 	   47.2932
    2.4033 	   25.2690 	    6.0000 	   31.0000 	   47.9563
    2.4796 	   25.9570 	    6.0000 	   31.0000 	   48.6443
    2.4491 	   26.6330 	    6.0000 	   31.0000 	   49.3204
    2.5711 	   27.2890 	    6.0000 	   31.0000 	   49.9764
    2.7543 	   27.9270 	    6.0000 	   31.0000 	   50.6144
    2.5254 	   28.5710 	    6.0000 	   31.0000 	   51.2585
    2.9374 	   29.2440 	    6.0000 	   31.0000 	   51.9315
    2.9526 	   29.9000 	    6.0000 	   31.0000 	   52.5875
    2.8153 	   30.5750 	    6.0000 	   31.0000 	   53.2626
    2.9526 	   31.2570 	    6.0000 	   31.0000 	   53.9446
    2.8153 	   31.9270 	    6.0000 	   31.0000 	   54.6137
    2.8916 	   32.6250 	    6.0000 	   31.0000 	   55.3117
    2.8305 	   33.3190 	    6.0000 	   31.0000 	   56.0057
    2.7695 	   34.0150 	    6.0000 	   31.0000 	   56.7018
    2.8000 	   34.7250 	    6.0000 	   31.0000 	   57.4118
    2.5254 	   35.4050 	    6.0000 	   31.0000 	   58.0919
    2.8763 	   36.1070 	    6.0000 	   31.0000 	   58.7939
    2.6322 	   36.8350 	    6.0000 	   31.0000 	   59.5219
    2.9679 	   37.5440 	    6.0000 	   32.0000 	    0.2310
    2.5406 	   38.2550 	    6.0000 	   32.0000 	    0.9420
    2.7695 	   38.9780 	    6.0000 	   32.0000 	    1.6651
    2.7543 	   39.6930 	    6.0000 	   32.0000 	    2.3801
    2.8153 	   40.4100 	    6.0000 	   32.0000 	    3.0971
    2.7848 	   41.1360 	    6.0000 	   32.0000 	    3.8232
    2.7695 	   41.8410 	    6.0000 	   32.0000 	    4.5282
    2.6322 	   42.5380 	    6.0000 	   32.0000 	    5.2253
    2.7848 	   43.2690 	    6.0000 	   32.0000 	    5.9563
    2.6627 	   43.9900 	    6.0000 	   32.0000 	    6.6774
    2.7237 	   44.7300 	    6.0000 	   32.0000 	    7.4174
    2.5864 	   45.4360 	    6.0000 	   32.0000 	    8.1234
    2.8305 	   46.1700 	    6.0000 	   32.0000 	    8.8575
    2.6932 	   46.9210 	    6.0000 	   32.0000 	    9.6085
    2.4796 	   47.6710 	    6.0000 	   32.0000 	   10.3586
    2.7085 	   48.4060 	    6.0000 	   32.0000 	   11.0936
    2.7085 	   49.1740 	    6.0000 	   32.0000 	   11.8616
    2.6627 	   49.9560 	    6.0000 	   32.0000 	   12.6427
    2.6627 	   50.7210 	    6.0000 	   32.0000 	   13.4077
    2.8153 	   51.4740 	    6.0000 	   32.0000 	   14.1608
    2.6780 	   52.2590 	    6.0000 	   32.0000 	   14.9458
    2.7390 	   53.0480 	    6.0000 	   32.0000 	   15.7349
    2.6780 	   53.8160 	    6.0000 	   32.0000 	   16.5029
    2.7543 	   54.6040 	    6.0000 	   32.0000 	   17.2910
    2.3423 	   55.3850 	    6.0000 	   32.0000 	   18.0720
    2.7085 	   56.1580 	    6.0000 	   32.0000 	   18.8450
    2.8763 	   56.9300 	    6.0000 	   32.0000 	   19.6171
    2.7695 	   57.7160 	    6.0000 	   32.0000 	   20.4031
    2.6169 	   58.4760 	    6.0000 	   32.0000 	   21.1632
    2.8000 	   59.2210 	    6.0000 	   32.0000 	   21.9082
    2.6932 	   60.0120 	    6.0000 	   32.0000 	   22.6993
    2.5711 	   60.7880 	    6.0000 	   32.0000 	   23.4753
    2.6627 	   61.5720 	    6.0000 	   32.0000 	   24.2594
    2.8153 	   62.3840 	    6.0000 	   32.0000 	   25.0714
    2.8153 	   63.1530 	    6.0000 	   32.0000 	   25.8404
    2.8305 	   63.9200 	    6.0000 	   32.0000 	   26.6075
    2.7543 	   64.7250 	    6.0000 	   32.0000 	   27.4125
    2.6017 	   65.5090 	    6.0000 	   32.0000 	   28.1966
    2.7695 	   66.3200 	    6.0000 	   32.0000 	   29.0076
    2.6169 	   67.1370 	    6.0000 	   32.0000 	   29.8247
    2.6474 	   67.9330 	    6.0000 	   32.0000 	   30.6197
    2.5711 	   68.7280 	    6.0000 	   32.0000 	   31.4148
    2.7237 	   69.5360 	    6.0000 	   32.0000 	   32.2228
    2.7390 	   70.3520 	    6.0000 	   32.0000 	   33.0389
    2.6322 	   71.1650 	    6.0000 	   32.0000 	   33.8519
    2.6627 	   71.9760 	    6.0000 	   32.0000 	   34.6629
    2.6169 	   72.8070 	    6.0000 	   32.0000 	   35.4940
    2.6932 	   73.6010 	    6.0000 	   32.0000 	   36.2880
    2.7543 	   74.4290 	    6.0000 	   32.0000 	   37.1161
    2.6474 	   75.2090 	    6.0000 	   32.0000 	   37.8961
    2.7390 	   76.0090 	    6.0000 	   32.0000 	   38.6962
    2.6322 	   76.8040 	    6.0000 	   32.0000 	   39.4912
    2.6474 	   77.6200 	    6.0000 	   32.0000 	   40.3073
    2.7237 	   78.4180 	    6.0000 	   32.0000 	   41.1053
    2.6474 	   79.2600 	    6.0000 	   32.0000 	   41.9474
    2.7848 	   80.0450 	    6.0000 	   32.0000 	   42.7324
    2.6169 	   80.8540 	    6.0000 	   32.0000 	   43.5415
    2.6169 	   81.6710 	    6.0000 	   32.0000 	   44.3585
    2.6017 	   82.4860 	    6.0000 	   32.0000 	   45.1736
    2.7695 	   83.2840 	    6.0000 	   32.0000 	   45.9716
    2.7237 	   84.1290 	    6.0000 	   32.0000 	   46.8166
    2.6780 	   84.9760 	    6.0000 	   32.0000 	   47.6627
    2.6932 	   85.7930 	    6.0000 	   32.0000 	   48.4797
    2.5711 	   86.6170 	    6.0000 	   32.0000 	   49.3038
    2.6017 	   87.4400 	    6.0000 	   32.0000 	   50.1268
    2.5864 	   88.2830 	    6.0000 	   32.0000 	   50.9699
    2.8153 	   89.1100 	    6.0000 	   32.0000 	   51.7969
    2.6017 	   89.9520 	    6.0000 	   32.0000 	   52.6390
    2.7237 	   90.7970 	    6.0000 	   32.0000 	   53.4840
    2.5254 	   91.6510 	    6.0000 	   32.0000 	   54.3381
    2.1744 	   92.5020 	    6.0000 	   32.0000 	   55.1891
    2.0218 	   93.3370 	    6.0000 	   32.0000 	   56.0242
    1.7929 	   94.1790 	    6.0000 	   32.0000 	   56.8662
    1.7624 	   95.0390 	    6.0000 	   32.0000 	   57.7263
    1.6403 	   95.9100 	    6.0000 	   32.0000 	   58.5973
    1.5946 	   96.7890 	    6.0000 	   32.0000 	   59.4764
    1.3199 	   97.6530 	    6.0000 	   33.0000 	    0.3404
    1.2894 	   98.5170 	    6.0000 	   33.0000 	    1.2045
    1.4115 	   99.3660 	    6.0000 	   33.0000 	    2.0535
    1.3504 	  100.2490 	    6.0000 	   33.0000 	    2.9366
    1.3352 	  101.1450 	    6.0000 	   33.0000 	    3.8326
    1.3657 	  102.0200 	    6.0000 	   33.0000 	    4.7067
    1.1063 	  102.8680 	    6.0000 	   33.0000 	    5.5547
    1.0452 	  103.7460 	    6.0000 	   33.0000 	    6.4328
    1.1826 	  104.6100 	    6.0000 	   33.0000 	    7.2968
    0.9995 	  105.4810 	    6.0000 	   33.0000 	    8.1679
    1.0452 	  106.3550 	    6.0000 	   33.0000 	    9.0419
    0.9689 	  107.2110 	    6.0000 	   33.0000 	    9.8980
    0.8469 	  108.0810 	    6.0000 	   33.0000 	   10.7680
    0.8774 	  108.9620 	    6.0000 	   33.0000 	   11.6491
    0.7706 	  109.8600 	    6.0000 	   33.0000 	   12.5471
    0.9079 	  110.7500 	    6.0000 	   33.0000 	   13.4372
    0.7248 	  111.6280 	    6.0000 	   33.0000 	   14.3152
    0.9537 	  112.5080 	    6.0000 	   33.0000 	   15.1953
    0.9232 	  113.4140 	    6.0000 	   33.0000 	   16.1013
    0.9232 	  114.3080 	    6.0000 	   33.0000 	   16.9954
    0.6943 	  115.1960 	    6.0000 	   33.0000 	   17.8834
    0.8621 	  116.0960 	    6.0000 	   33.0000 	   18.7835
    0.7706 	  116.9680 	    6.0000 	   33.0000 	   19.6555
    0.7706 	  117.8950 	    6.0000 	   33.0000 	   20.5826
    0.7553 	  118.8200 	    6.0000 	   33.0000 	   21.5076
    0.8927 	  119.7220 	    6.0000 	   33.0000 	   22.4097
    0.6332 	  120.6010 	    6.0000 	   33.0000 	   23.2877
    0.6790 	  121.5110 	    6.0000 	   33.0000 	   24.1978
    0.6027 	  122.4810 	    6.0000 	   33.0000 	   25.1678
    0.6485 	  123.3990 	    6.0000 	   33.0000 	   26.0859
    0.6332 	  124.2820 	    6.0000 	   33.0000 	   26.9689
    0.6180 	  125.1900 	    6.0000 	   33.0000 	   27.8770
    0.6485 	  126.1120 	    6.0000 	   33.0000 	   28.7990
    0.5264 	  127.0470 	    6.0000 	   33.0000 	   29.7341
    0.3586 	  127.9930 	    6.0000 	   33.0000 	   30.6802
    0.5264 	  128.9170 	    6.0000 	   33.0000 	   31.6042
    0.6332 	  129.8700 	    6.0000 	   33.0000 	   32.5573
    0.2976 	  130.8120 	    6.0000 	   33.0000 	   33.4993
    0.6485 	  130.8560 	    6.0000 	   33.0000 	   33.5433