File: instron/independence/size/length/b_l10w3_40_30.txt
Thayer School of Engineering        Instron 4442 Mechanical Testing System
7/5/2018 11:31:43 PM

  Force (N)	Extension (mm)	Not Used	Not Used	Not Used	     Hour	    Minute	    Second
    0.4654 	    0.5140 	   23.0000 	   31.0000 	   56.6347
    0.5570 	    0.8665 	   23.0000 	   31.0000 	   57.3397
    0.5722 	    1.2390 	   23.0000 	   31.0000 	   58.0848
    0.6027 	    1.6025 	   23.0000 	   31.0000 	   58.8118
    0.5417 	    1.8840 	   23.0000 	   31.0000 	   59.3748
    0.5722 	    2.1485 	   23.0000 	   31.0000 	   59.9039
    0.6027 	    2.4090 	   23.0000 	   32.0000 	    0.4249
    0.5722 	    2.6685 	   23.0000 	   32.0000 	    0.9439
    0.6027 	    2.9185 	   23.0000 	   32.0000 	    1.4439
    0.5875 	    3.1670 	   23.0000 	   32.0000 	    1.9410
    0.6027 	    3.4185 	   23.0000 	   32.0000 	    2.4440
    0.6943 	    3.6715 	   23.0000 	   32.0000 	    2.9500
    0.6638 	    3.9265 	   23.0000 	   32.0000 	    3.4601
    0.6180 	    4.1785 	   23.0000 	   32.0000 	    3.9641
    0.6943 	    4.4260 	   23.0000 	   32.0000 	    4.4591
    0.6027 	    4.6815 	   23.0000 	   32.0000 	    4.9701
    0.6027 	    4.9365 	   23.0000 	   32.0000 	    5.4802
    0.7706 	    5.1910 	   23.0000 	   32.0000 	    5.9892
    0.6027 	    5.4480 	   23.0000 	   32.0000 	    6.5032
    0.7401 	    5.7070 	   23.0000 	   32.0000 	    7.0203
    0.6332 	    5.9665 	   23.0000 	   32.0000 	    7.5393
    0.8621 	    6.2235 	   23.0000 	   32.0000 	    8.0533
    0.6638 	    6.4825 	   23.0000 	   32.0000 	    8.5714
    0.7401 	    6.7490 	   23.0000 	   32.0000 	    9.1044
    0.6180 	    7.0150 	   23.0000 	   32.0000 	    9.6364
    0.8011 	    7.2790 	   23.0000 	   32.0000 	   10.1644
    0.7248 	    7.5400 	   23.0000 	   32.0000 	   10.6865
    0.6485 	    7.8070 	   23.0000 	   32.0000 	   11.2205
    0.7401 	    8.0780 	   23.0000 	   32.0000 	   11.7625
    0.6790 	    8.3415 	   23.0000 	   32.0000 	   12.2896
    0.8011 	    8.6085 	   23.0000 	   32.0000 	   12.8236
    0.7401 	    8.8755 	   23.0000 	   32.0000 	   13.3576
    0.6180 	    9.1420 	   23.0000 	   32.0000 	   13.8907
    0.7858 	    9.4090 	   23.0000 	   32.0000 	   14.4247
    0.8164 	    9.6775 	   23.0000 	   32.0000 	   14.9617
    0.6943 	    9.9505 	   23.0000 	   32.0000 	   15.5077
    0.7401 	   10.2195 	   23.0000 	   32.0000 	   16.0458
    0.9079 	   10.4845 	   23.0000 	   32.0000 	   16.5758
    0.7401 	   10.7510 	   23.0000 	   32.0000 	   17.1088
    0.8011 	   11.0260 	   23.0000 	   32.0000 	   17.6589
    0.7095 	   11.2930 	   23.0000 	   32.0000 	   18.1929
    0.7858 	   11.5635 	   23.0000 	   32.0000 	   18.7339
    0.8774 	   11.8390 	   23.0000 	   32.0000 	   19.2850
    0.5722 	   12.1150 	   23.0000 	   32.0000 	   19.8370
    0.9079 	   12.3910 	   23.0000 	   32.0000 	   20.3890
    0.7706 	   12.6610 	   23.0000 	   32.0000 	   20.9291
    0.8774 	   12.9385 	   23.0000 	   32.0000 	   21.4841
    0.8927 	   13.2220 	   23.0000 	   32.0000 	   22.0511
    0.9995 	   13.5045 	   23.0000 	   32.0000 	   22.6162
    0.8774 	   13.7800 	   23.0000 	   32.0000 	   23.1672
    0.7401 	   14.0610 	   23.0000 	   32.0000 	   23.7292
    0.9689 	   14.3425 	   23.0000 	   32.0000 	   24.2913
    0.9995 	   14.6145 	   23.0000 	   32.0000 	   24.8353
    1.0147 	   14.8795 	   23.0000 	   32.0000 	   25.3653
    1.0147 	   15.1715 	   23.0000 	   32.0000 	   25.9493
    1.0605 	   15.4585 	   23.0000 	   32.0000 	   26.5234
    1.1063 	   15.7185 	   23.0000 	   32.0000 	   27.0434
    1.1978 	   16.0000 	   23.0000 	   32.0000 	   27.6064
    1.2589 	   16.2780 	   23.0000 	   32.0000 	   28.1625
    1.2284 	   16.5640 	   23.0000 	   32.0000 	   28.7345
    1.0910 	   16.8430 	   23.0000 	   32.0000 	   29.2925
    1.1368 	   17.1305 	   23.0000 	   32.0000 	   29.8676
    1.3352 	   17.4190 	   23.0000 	   32.0000 	   30.4446
    1.2894 	   17.7045 	   23.0000 	   32.0000 	   31.0156
    1.2741 	   17.9815 	   23.0000 	   32.0000 	   31.5697
    1.1978 	   18.2640 	   23.0000 	   32.0000 	   32.1347
    1.2894 	   18.5515 	   23.0000 	   32.0000 	   32.7097
    1.2741 	   18.8355 	   23.0000 	   32.0000 	   33.2778
    1.4725 	   19.1330 	   23.0000 	   32.0000 	   33.8728
    1.3199 	   19.4245 	   23.0000 	   32.0000 	   34.4558
    1.5183 	   19.7155 	   23.0000 	   32.0000 	   35.0379
    1.5183 	   20.0045 	   23.0000 	   32.0000 	   35.6159
    1.4420 	   20.3010 	   23.0000 	   32.0000 	   36.2089
    1.4115 	   20.5925 	   23.0000 	   32.0000 	   36.7920
    1.4725 	   20.8785 	   23.0000 	   32.0000 	   37.3640
    1.4420 	   21.1495 	   23.0000 	   32.0000 	   37.9060
    1.5793 	   21.4365 	   23.0000 	   32.0000 	   38.4801
    1.5946 	   21.7320 	   23.0000 	   32.0000 	   39.0711
    1.6098 	   22.0255 	   23.0000 	   32.0000 	   39.6581
    1.6403 	   22.3190 	   23.0000 	   32.0000 	   40.2452
    1.8235 	   22.6135 	   23.0000 	   32.0000 	   40.8342
    1.6709 	   22.9060 	   23.0000 	   32.0000 	   41.4192
    1.8540 	   23.2105 	   23.0000 	   32.0000 	   42.0273
    1.7319 	   23.5055 	   23.0000 	   32.0000 	   42.6173
    1.7319 	   23.7925 	   23.0000 	   32.0000 	   43.1913
    1.5183 	   24.0825 	   23.0000 	   32.0000 	   43.7714
    1.8845 	   24.3765 	   23.0000 	   32.0000 	   44.3594
    1.9760 	   24.6765 	   23.0000 	   32.0000 	   44.9594
    2.0829 	   24.9535 	   23.0000 	   32.0000 	   45.5135
    2.0676 	   25.2505 	   23.0000 	   32.0000 	   46.1075
    2.0066 	   25.5320 	   23.0000 	   32.0000 	   46.6705
    2.3117 	   25.8225 	   23.0000 	   32.0000 	   47.2516
    2.0523 	   26.1200 	   23.0000 	   32.0000 	   47.8466
    2.2202 	   26.4110 	   23.0000 	   32.0000 	   48.4286
    2.2202 	   26.6825 	   23.0000 	   32.0000 	   48.9717
    2.2660 	   26.9485 	   23.0000 	   32.0000 	   49.5037
    2.4491 	   27.2245 	   23.0000 	   32.0000 	   50.0557
    2.4033 	   27.5010 	   23.0000 	   32.0000 	   50.6088
    2.5101 	   27.7965 	   23.0000 	   32.0000 	   51.1998
    2.4491 	   28.0730 	   23.0000 	   32.0000 	   51.7528
    2.6322 	   28.3395 	   23.0000 	   32.0000 	   52.2859
    2.5864 	   28.6095 	   23.0000 	   32.0000 	   52.8259
    2.6322 	   28.8920 	   23.0000 	   32.0000 	   53.3909
    2.6780 	   29.1985 	   23.0000 	   32.0000 	   54.0039
    2.4338 	   29.4765 	   23.0000 	   32.0000 	   54.5600
    2.7848 	   29.7685 	   23.0000 	   32.0000 	   55.1440
    2.8153 	   30.0520 	   23.0000 	   32.0000 	   55.7110
    2.8763 	   30.3250 	   23.0000 	   32.0000 	   56.2571
    3.0289 	   30.5955 	   23.0000 	   32.0000 	   56.7981
    3.0137 	   30.8840 	   23.0000 	   32.0000 	   57.3751
    2.9374 	   31.2055 	   23.0000 	   32.0000 	   58.0182
    2.9984 	   31.5140 	   23.0000 	   32.0000 	   58.6352
    3.1205 	   31.8180 	   23.0000 	   32.0000 	   59.2422
    3.1815 	   32.0990 	   23.0000 	   32.0000 	   59.8043
    3.1815 	   32.3880 	   23.0000 	   33.0000 	    0.3823
    3.3341 	   32.6860 	   23.0000 	   33.0000 	    0.9773
    3.4867 	   32.9915 	   23.0000 	   33.0000 	    1.5894
    3.4562 	   33.2930 	   23.0000 	   33.0000 	    2.1924
    3.4867 	   33.5995 	   23.0000 	   33.0000 	    2.8055
    3.6393 	   33.8850 	   23.0000 	   33.0000 	    3.3765
    3.6698 	   34.1765 	   23.0000 	   33.0000 	    3.9595
    3.6393 	   34.4855 	   23.0000 	   33.0000 	    4.5776
    3.6851 	   34.7930 	   23.0000 	   33.0000 	    5.1926
    3.7919 	   35.1090 	   23.0000 	   33.0000 	    5.8246
    3.8529 	   35.4215 	   23.0000 	   33.0000 	    6.4497
    3.8529 	   35.7280 	   23.0000 	   33.0000 	    7.0627
    3.9597 	   36.0260 	   23.0000 	   33.0000 	    7.6587
    4.2039 	   36.3270 	   23.0000 	   33.0000 	    8.2608
    4.1276 	   36.6450 	   23.0000 	   33.0000 	    8.8968
    4.2649 	   36.9495 	   23.0000 	   33.0000 	    9.5058
    4.2496 	   37.2615 	   23.0000 	   33.0000 	   10.1299
    4.1886 	   37.5735 	   23.0000 	   33.0000 	   10.7539
    4.3565 	   37.8575 	   23.0000 	   33.0000 	   11.3219
    4.3565 	   38.1565 	   23.0000 	   33.0000 	   11.9200
    4.4480 	   38.4505 	   23.0000 	   33.0000 	   12.5080
    4.2802 	   38.7360 	   23.0000 	   33.0000 	   13.0790
    4.3870 	   39.0265 	   23.0000 	   33.0000 	   13.6601
    4.6464 	   39.3205 	   23.0000 	   33.0000 	   14.2481
    4.6616 	   39.6255 	   23.0000 	   33.0000 	   14.8581
    4.7990 	   39.9420 	   23.0000 	   33.0000 	   15.4912
    4.8295 	   40.2630 	   23.0000 	   33.0000 	   16.1332
    4.7990 	   40.5810 	   23.0000 	   33.0000 	   16.7683
    4.9821 	   40.9035 	   23.0000 	   33.0000 	   17.4133
    5.0126 	   41.2120 	   23.0000 	   33.0000 	   18.0303
    4.9363 	   41.5280 	   23.0000 	   33.0000 	   18.6624
    5.1652 	   41.8460 	   23.0000 	   33.0000 	   19.2984
    5.0126 	   42.1490 	   23.0000 	   33.0000 	   19.9044
    5.0889 	   42.4575 	   23.0000 	   33.0000 	   20.5215
    5.2720 	   42.7760 	   23.0000 	   33.0000 	   21.1585
    5.2567 	   43.0880 	   23.0000 	   33.0000 	   21.7825
    5.2567 	   43.4130 	   23.0000 	   33.0000 	   22.4326
    5.4551 	   43.7285 	   23.0000 	   33.0000 	   23.0636
    5.5314 	   44.0340 	   23.0000 	   33.0000 	   23.6746
    5.4246 	   44.3460 	   23.0000 	   33.0000 	   24.2987
    5.5924 	   44.6635 	   23.0000 	   33.0000 	   24.9337
    5.7145 	   44.9620 	   23.0000 	   33.0000 	   25.5308
    5.6077 	   45.2595 	   23.0000 	   33.0000 	   26.1258
    5.7450 	   45.5540 	   23.0000 	   33.0000 	   26.7148
    5.8061 	   45.8750 	   23.0000 	   33.0000 	   27.3569
    6.0044 	   46.1935 	   23.0000 	   33.0000 	   27.9939
    5.9586 	   46.5170 	   23.0000 	   33.0000 	   28.6409
    6.0197 	   46.8145 	   23.0000 	   33.0000 	   29.2360
    5.9739 	   47.0800 	   23.0000 	   33.0000 	   29.7670