File: instron/10_grey_2W15L_drag50_spd15.txt
Thayer School of Engineering        Instron 4442 Mechanical Testing System
6/28/2018 1:49:18 AM

  Force (N)	Extension (mm)	Not Used	Not Used	Not Used	     Hour	    Minute	    Second
    0.1450 	    0.2558 	    1.0000 	   49.0000 	   42.6093
    0.1755 	    0.9525 	    1.0000 	   49.0000 	   45.3965
   -0.1755 	    1.4353 	    1.0000 	   49.0000 	   47.3266
    0.0839 	    1.9108 	    1.0000 	   49.0000 	   49.2287
    0.1297 	    2.3823 	    1.0000 	   49.0000 	   51.1148
    0.1144 	    2.8633 	    1.0000 	   49.0000 	   53.0389
    0.3433 	    3.3480 	    1.0000 	   49.0000 	   54.9780
    0.2976 	    3.8353 	    1.0000 	   49.0000 	   56.9271
    0.1450 	    4.3333 	    1.0000 	   49.0000 	   58.9192
    0.1602 	    4.8423 	    1.0000 	   50.0000 	    0.9553
    0.0687 	    5.3123 	    1.0000 	   50.0000 	    2.8354
    0.0992 	    5.8048 	    1.0000 	   50.0000 	    4.8056
    0.1450 	    6.2913 	    1.0000 	   50.0000 	    6.7507
    0.2823 	    6.7573 	    1.0000 	   50.0000 	    8.6148
    0.2213 	    7.2360 	    1.0000 	   50.0000 	   10.5299
    0.2213 	    7.7210 	    1.0000 	   50.0000 	   12.4700
    0.3128 	    8.2233 	    1.0000 	   50.0000 	   14.4791
    0.2213 	    8.7183 	    1.0000 	   50.0000 	   16.4592
    0.2976 	    9.2255 	    1.0000 	   50.0000 	   18.4883
    0.2518 	    9.7293 	    1.0000 	   50.0000 	   20.5035
    0.1907 	   10.2645 	    1.0000 	   50.0000 	   22.6446
    0.4349 	   10.8298 	    1.0000 	   50.0000 	   24.9047
    0.6180 	   11.3935 	    1.0000 	   50.0000 	   27.1598
    0.6943 	   11.9503 	    1.0000 	   50.0000 	   29.3870
    0.8927 	   12.5150 	    1.0000 	   50.0000 	   31.6461
    1.0147 	   13.0878 	    1.0000 	   50.0000 	   33.9372
    0.9995 	   13.6570 	    1.0000 	   50.0000 	   36.2144
    1.2894 	   14.1805 	    1.0000 	   50.0000 	   38.3085
    1.3504 	   14.6940 	    1.0000 	   50.0000 	   40.3626
    1.3504 	   15.2055 	    1.0000 	   50.0000 	   42.4077
    1.4878 	   15.7280 	    1.0000 	   50.0000 	   44.4978
    1.8540 	   16.2598 	    1.0000 	   50.0000 	   46.6250
    1.7777 	   16.8458 	    1.0000 	   50.0000 	   48.9691
    1.8540 	   17.4340 	    1.0000 	   50.0000 	   51.3222
    1.9608 	   18.0278 	    1.0000 	   50.0000 	   53.6974
    2.0066 	   18.6270 	    1.0000 	   50.0000 	   56.0945
    2.0981 	   19.2125 	    1.0000 	   50.0000 	   58.4366
    2.1286 	   19.8003 	    1.0000 	   51.0000 	    0.7868
    2.1744 	   20.4070 	    1.0000 	   51.0000 	    3.2139
    2.2812 	   21.0090 	    1.0000 	   51.0000 	    5.6220
    2.4033 	   21.6160 	    1.0000 	   51.0000 	    8.0502
    2.6017 	   22.2295 	    1.0000 	   51.0000 	   10.5043
    2.8305 	   22.8395 	    1.0000 	   51.0000 	   12.9445
    2.7085 	   23.4473 	    1.0000 	   51.0000 	   15.3756
    2.9831 	   24.0553 	    1.0000 	   51.0000 	   17.8067
    3.0137 	   24.6685 	    1.0000 	   51.0000 	   20.2599
    3.1968 	   25.2985 	    1.0000 	   51.0000 	   22.7800
    3.3646 	   25.9208 	    1.0000 	   51.0000 	   25.2692
    3.3951 	   26.4833 	    1.0000 	   51.0000 	   27.5193
    3.6393 	   27.1113 	    1.0000 	   51.0000 	   30.0314
    3.7766 	   27.7393 	    1.0000 	   51.0000 	   32.5436
    3.8529 	   28.3630 	    1.0000 	   51.0000 	   35.0377
    3.8071 	   28.9988 	    1.0000 	   51.0000 	   37.5809
    4.0665 	   29.5955 	    1.0000 	   51.0000 	   39.9680
    4.1733 	   30.1808 	    1.0000 	   51.0000 	   42.3091
    4.4938 	   30.7690 	    1.0000 	   51.0000 	   44.6623
    4.5396 	   31.3665 	    1.0000 	   51.0000 	   47.0524
    4.7227 	   31.9633 	    1.0000 	   51.0000 	   49.4395
    4.9668 	   32.5588 	    1.0000 	   51.0000 	   51.8207
    4.9821 	   33.1580 	    1.0000 	   51.0000 	   54.2178
    5.2873 	   33.7683 	    1.0000 	   51.0000 	   56.6590
    5.4704 	   34.3778 	    1.0000 	   51.0000 	   59.0971
    5.4856 	   34.9827 	    1.0000 	   52.0000 	    1.5172
    5.8366 	   35.5940 	    1.0000 	   52.0000 	    3.9624
    5.9739 	   36.2093 	    1.0000 	   52.0000 	    6.4235
    6.3096 	   36.8400 	    1.0000 	   52.0000 	    8.9457
    6.3401 	   37.5023 	    1.0000 	   52.0000 	   11.5948
    6.8437 	   38.1813 	    1.0000 	   52.0000 	   14.3110
    7.2251 	   38.8535 	    1.0000 	   52.0000 	   16.9991
    7.5761 	   39.5008 	    1.0000 	   52.0000 	   19.5893
    7.9423 	   40.1313 	    1.0000 	   52.0000 	   22.1114
    7.9271 	   40.7598 	    1.0000 	   52.0000 	   24.6256
    8.8731 	   41.3963 	    1.0000 	   52.0000 	   27.1707
    9.1478 	   42.0363 	    1.0000 	   52.0000 	   29.7309
    9.5903 	   42.6765 	    1.0000 	   52.0000 	   32.2920
    9.9413 	   43.3328 	    1.0000 	   52.0000 	   34.9171
   10.5974 	   44.0143 	    1.0000 	   52.0000 	   37.6433
   11.1162 	   44.7153 	    1.0000 	   52.0000 	   40.4475
   11.8791 	   45.4220 	    1.0000 	   52.0000 	   43.2746
   12.3064 	   46.1260 	    1.0000 	   52.0000 	   46.0898
   13.2219 	   46.8370 	    1.0000 	   52.0000 	   48.9339
   13.8781 	   47.5218 	    1.0000 	   52.0000 	   51.6731
   14.4274 	   48.1873 	    1.0000 	   52.0000 	   54.3353
   15.1598 	   48.8550 	    1.0000 	   52.0000 	   57.0064
   16.0601 	   49.5318 	    1.0000 	   52.0000 	   59.7136
   16.9757 	   50.2290 	    1.0000 	   53.0000 	    2.5017
   17.8302 	   50.9270 	    1.0000 	   53.0000 	    5.2939
   17.1130 	   51.6053 	    1.0000 	   53.0000 	    8.0070
   16.6705 	   52.3005 	    1.0000 	   53.0000 	   10.7882
   16.3958 	   52.9855 	    1.0000 	   53.0000 	   13.5284
   16.1975 	   53.6815 	    1.0000 	   53.0000 	   16.3125
   15.9228 	   54.3805 	    1.0000 	   53.0000 	   19.1077
   15.8007 	   55.0775 	    1.0000 	   53.0000 	   21.8958
   15.5566 	   55.7783 	    1.0000 	   53.0000 	   24.6990
   15.5108 	   56.4840 	    1.0000 	   53.0000 	   27.5222
   15.6481 	   57.1930 	    1.0000 	   53.0000 	   30.3583
   15.4803 	   57.9098 	    1.0000 	   53.0000 	   33.2255
   15.4192 	   58.6248 	    1.0000 	   53.0000 	   36.0856
   15.1446 	   59.3833 	    1.0000 	   53.0000 	   39.1188
   15.0225 	   60.1600 	    1.0000 	   53.0000 	   42.2260
   15.1598 	   60.9463 	    1.0000 	   53.0000 	   45.3712
   15.0072 	   61.7035 	    1.0000 	   53.0000 	   48.4004
   14.9004 	   62.4990 	    1.0000 	   53.0000 	   51.5825
   14.9615 	   63.2870 	    1.0000 	   53.0000 	   54.7337
   14.7326 	   64.0508 	    1.0000 	   53.0000 	   57.7889
   14.7021 	   64.7928 	    1.0000 	   54.0000 	    0.7571
   14.6563 	   65.5353 	    1.0000 	   54.0000 	    3.7272
   14.6868 	   66.2855 	    1.0000 	   54.0000 	    6.7284
   14.5953 	   67.0413 	    1.0000 	   54.0000 	    9.7516
   14.3359 	   67.7993 	    1.0000 	   54.0000 	   12.7827
   11.6808 	   68.6043 	    1.0000 	   54.0000 	   16.0029
    9.8039 	   69.4060 	    1.0000 	   54.0000 	   19.2101
    8.5069 	   70.1908 	    1.0000 	   54.0000 	   22.3493
    7.4540 	   70.9665 	    1.0000 	   54.0000 	   25.4525
    6.7979 	   71.7563 	    1.0000 	   54.0000 	   28.6107
    6.1570 	   72.5718 	    1.0000 	   54.0000 	   31.8728
    5.5772 	   73.3840 	    1.0000 	   54.0000 	   35.1220
    5.1804 	   74.2170 	    1.0000 	   54.0000 	   38.4542
    4.9973 	   75.0360 	    1.0000 	   54.0000 	   41.7304
    4.4938 	   75.8670 	    1.0000 	   54.0000 	   45.0546
    4.2496 	   76.7233 	    1.0000 	   54.0000 	   48.4788
    4.0360 	   77.5713 	    1.0000 	   54.0000 	   51.8710
    3.7003 	   78.4055 	    1.0000 	   54.0000 	   55.2082
    3.7308 	   79.2187 	    1.0000 	   54.0000 	   58.4614
    3.3799 	   80.0658 	    1.0000 	   55.0000 	    1.8496
    3.4104 	   80.9130 	    1.0000 	   55.0000 	    5.2377
    3.0747 	   81.7423 	    1.0000 	   55.0000 	    8.5549
    2.9831 	   82.5808 	    1.0000 	   55.0000 	   11.9091
    2.8153 	   83.4123 	    1.0000 	   55.0000 	   15.2353
    2.2965 	   84.2658 	    1.0000 	   55.0000 	   18.6495
    2.5254 	   85.1255 	    1.0000 	   55.0000 	   22.0877
    2.4186 	   85.9845 	    1.0000 	   55.0000 	   25.5239
    2.2965 	   86.8478 	    1.0000 	   55.0000 	   28.9771
    2.2660 	   87.7255 	    1.0000 	   55.0000 	   32.4883
    2.0066 	   88.6048 	    1.0000 	   55.0000 	   36.0055
    1.8235 	   89.4840 	    1.0000 	   55.0000 	   39.5217
    1.7166 	   90.3515 	    1.0000 	   55.0000 	   42.9919
    1.6098 	   91.2245 	    1.0000 	   55.0000 	   46.4841
    1.6709 	   92.1098 	    1.0000 	   55.0000 	   50.0253
    1.4725 	   92.9965 	    1.0000 	   55.0000 	   53.5725
    1.3962 	   93.8810 	    1.0000 	   55.0000 	   57.1097
    1.2436 	   94.7730 	    1.0000 	   56.0000 	    0.6779
    1.2284 	   95.6705 	    1.0000 	   56.0000 	    4.2671
    1.0300 	   96.5700 	    1.0000 	   56.0000 	    7.8663
    0.8316 	   97.4843 	    1.0000 	   56.0000 	   11.5235
    0.8927 	   98.4083 	    1.0000 	   56.0000 	   15.2187
    0.6332 	   99.3320 	    1.0000 	   56.0000 	   18.9140
    0.6180 	  100.2593 	    1.0000 	   56.0000 	   22.6232
    0.1602 	  101.1955 	    1.0000 	   56.0000 	   26.3684
    0.3433 	  102.1343 	    1.0000 	   56.0000 	   30.1236
   -0.0839 	  103.0658 	    1.0000 	   56.0000 	   33.8488
   -0.0076 	  104.0048 	    1.0000 	   56.0000 	   37.6050
    0.0992 	  104.9653 	    1.0000 	   56.0000 	   41.4473
    0.1144 	  105.9300 	    1.0000 	   56.0000 	   45.3065
    0.1450 	  106.8858 	    1.0000 	   56.0000 	   49.1287
    0.1907 	  107.8473 	    1.0000 	   56.0000 	   52.9749
    0.1907 	  108.8030 	    1.0000 	   56.0000 	   56.7981
    0.1144 	  109.7780 	    1.0000 	   57.0000 	    0.6983
    0.0076 	  110.7565 	    1.0000 	   57.0000 	    4.6126
    0.0992 	  111.7395 	    1.0000 	   57.0000 	    8.5438
    0.2518 	  112.7185 	    1.0000 	   57.0000 	   12.4600
    0.0076 	  113.6880 	    1.0000 	   57.0000 	   16.3382
    0.0534 	  114.6618 	    1.0000 	   57.0000 	   20.2335
   -0.0381 	  115.6578 	    1.0000 	   57.0000 	   24.2167
    0.0992 	  116.6568 	    1.0000 	   57.0000 	   28.2129
    0.0229 	  117.6598 	    1.0000 	   57.0000 	   32.2252
    0.0839 	  118.6595 	    1.0000 	   57.0000 	   36.2244
    0.1297 	  119.5663 	    1.0000 	   57.0000 	   39.8516