File: instron/10_grey_2W15L_drag10_spd15.txt
Thayer School of Engineering        Instron 4442 Mechanical Testing System
6/28/2018 1:59:07 AM

  Force (N)	Extension (mm)	Not Used	Not Used	Not Used	     Hour	    Minute	    Second
    0.0687 	    0.2560 	    1.0000 	   59.0000 	   42.6486
    0.0534 	    0.6690 	    1.0000 	   59.0000 	   44.3007
    0.0381 	    0.9855 	    1.0000 	   59.0000 	   45.5668
    0.0992 	    1.2615 	    1.0000 	   59.0000 	   46.6708
    0.0229 	    1.5225 	    1.0000 	   59.0000 	   47.7149
    0.1450 	    1.7220 	    1.0000 	   59.0000 	   48.5129
    0.0687 	    1.9110 	    1.0000 	   59.0000 	   49.2680
   -0.1144 	    2.0965 	    1.0000 	   59.0000 	   50.0100
   -0.1144 	    2.2795 	    1.0000 	   59.0000 	   50.7421
   -0.0687 	    2.4663 	    1.0000 	   59.0000 	   51.4891
    0.1450 	    2.7210 	    1.0000 	   59.0000 	   52.5082
    0.1144 	    2.9945 	    1.0000 	   59.0000 	   53.6022
    0.1297 	    3.2673 	    1.0000 	   59.0000 	   54.6933
    0.2670 	    3.5385 	    1.0000 	   59.0000 	   55.7784
    0.1602 	    3.8150 	    1.0000 	   59.0000 	   56.8844
    0.0839 	    4.0988 	    1.0000 	   59.0000 	   58.0195
    0.2823 	    4.3590 	    1.0000 	   59.0000 	   59.0606
    0.1450 	    4.6285 	    2.0000 	    0.0000 	    0.1386
    0.1602 	    4.9150 	    2.0000 	    0.0000 	    1.2847
    0.1755 	    5.2053 	    2.0000 	    0.0000 	    2.4457
    0.3891 	    5.4980 	    2.0000 	    0.0000 	    3.6168
    0.1450 	    5.7870 	    2.0000 	    0.0000 	    4.7729
    0.0534 	    6.0813 	    2.0000 	    0.0000 	    5.9499
   -0.1297 	    6.3815 	    2.0000 	    0.0000 	    7.1500
    0.1450 	    6.6788 	    2.0000 	    0.0000 	    8.3391
    0.2060 	    6.9728 	    2.0000 	    0.0000 	    9.5152
    0.0992 	    7.2785 	    2.0000 	    0.0000 	   10.7382
    0.1755 	    7.5793 	    2.0000 	    0.0000 	   11.9413
    0.2670 	    7.8833 	    2.0000 	    0.0000 	   13.1574
    0.2060 	    8.1925 	    2.0000 	    0.0000 	   14.3944
    0.0076 	    8.5060 	    2.0000 	    0.0000 	   15.6485
    0.3281 	    8.8177 	    2.0000 	    0.0000 	   16.8956
    0.2060 	    9.1323 	    2.0000 	    0.0000 	   18.1536
    0.1907 	    9.4388 	    2.0000 	    0.0000 	   19.3797
    0.1907 	    9.7535 	    2.0000 	    0.0000 	   20.6388
   -0.0076 	   10.0715 	    2.0000 	    0.0000 	   21.9109
    0.2060 	   10.3808 	    2.0000 	    0.0000 	   23.1479
    0.3891 	   10.6860 	    2.0000 	    0.0000 	   24.3680
    0.1907 	   11.0150 	    2.0000 	    0.0000 	   25.6841
    0.1907 	   11.3370 	    2.0000 	    0.0000 	   26.9721
    0.2365 	   11.6705 	    2.0000 	    0.0000 	   28.3062
    0.2670 	   12.0070 	    2.0000 	    0.0000 	   29.6523
    0.2670 	   12.3208 	    2.0000 	    0.0000 	   30.9074
    0.1297 	   12.6385 	    2.0000 	    0.0000 	   32.1784
    0.5417 	   12.9710 	    2.0000 	    0.0000 	   33.5085
    0.4959 	   13.3108 	    2.0000 	    0.0000 	   34.8676
    0.5875 	   13.6438 	    2.0000 	    0.0000 	   36.1997
    0.8316 	   13.9723 	    2.0000 	    0.0000 	   37.5138
    1.0758 	   14.2790 	    2.0000 	    0.0000 	   38.7408
    0.9537 	   14.6045 	    2.0000 	    0.0000 	   40.0429
    0.9995 	   14.9245 	    2.0000 	    0.0000 	   41.3230
    1.0910 	   15.2308 	    2.0000 	    0.0000 	   42.5470
    1.1673 	   15.5363 	    2.0000 	    0.0000 	   43.7691
    1.2589 	   15.8665 	    2.0000 	    0.0000 	   45.0902
    1.4572 	   16.1880 	    2.0000 	    0.0000 	   46.3763
    1.3504 	   16.5018 	    2.0000 	    0.0000 	   47.6313
    1.6709 	   16.8103 	    2.0000 	    0.0000 	   48.8654
    1.5488 	   17.1200 	    2.0000 	    0.0000 	   50.1045
    1.5488 	   17.4290 	    2.0000 	    0.0000 	   51.3405
    1.6709 	   17.7493 	    2.0000 	    0.0000 	   52.6216
    1.5946 	   18.0740 	    2.0000 	    0.0000 	   53.9207
    1.7319 	   18.3898 	    2.0000 	    0.0000 	   55.1838
    1.6556 	   18.6993 	    2.0000 	    0.0000 	   56.4218
    1.8235 	   19.0248 	    2.0000 	    0.0000 	   57.7239
    1.7777 	   19.3480 	    2.0000 	    0.0000 	   59.0170
    1.8997 	   19.6820 	    2.0000 	    1.0000 	    0.3521
    2.0523 	   20.0098 	    2.0000 	    1.0000 	    1.6631
    2.0676 	   20.3488 	    2.0000 	    1.0000 	    3.0192
    1.9913 	   20.6738 	    2.0000 	    1.0000 	    4.3193
    2.0066 	   20.9828 	    2.0000 	    1.0000 	    5.5554
    1.9608 	   21.2948 	    2.0000 	    1.0000 	    6.8034
    1.9303 	   21.6100 	    2.0000 	    1.0000 	    8.0645
    2.0523 	   21.9583 	    2.0000 	    1.0000 	    9.4576
    2.0829 	   22.2925 	    2.0000 	    1.0000 	   10.7947
    1.9150 	   22.6273 	    2.0000 	    1.0000 	   12.1337
    1.9760 	   22.9718 	    2.0000 	    1.0000 	   13.5118
    1.8997 	   23.2903 	    2.0000 	    1.0000 	   14.7859
    2.0066 	   23.6275 	    2.0000 	    1.0000 	   16.1350
    1.7929 	   23.9515 	    2.0000 	    1.0000 	   17.4300
    1.8997 	   24.2980 	    2.0000 	    1.0000 	   18.8161
    1.8845 	   24.6348 	    2.0000 	    1.0000 	   20.1632
    1.9455 	   24.9753 	    2.0000 	    1.0000 	   21.5253
    1.9150 	   25.3268 	    2.0000 	    1.0000 	   22.9313
    1.7624 	   25.6615 	    2.0000 	    1.0000 	   24.2704
    1.9455 	   26.0210 	    2.0000 	    1.0000 	   25.7085
    1.8082 	   26.3673 	    2.0000 	    1.0000 	   27.0936
    1.8692 	   26.7053 	    2.0000 	    1.0000 	   28.4457
    1.9150 	   27.0560 	    2.0000 	    1.0000 	   29.8487
    1.9303 	   27.3985 	    2.0000 	    1.0000 	   31.2188
    1.7929 	   27.7408 	    2.0000 	    1.0000 	   32.5879
    1.5335 	   28.0858 	    2.0000 	    1.0000 	   33.9680
    1.8387 	   28.4373 	    2.0000 	    1.0000 	   35.3731
    1.7777 	   28.7808 	    2.0000 	    1.0000 	   36.7471
    1.8387 	   29.1283 	    2.0000 	    1.0000 	   38.1372
    1.9303 	   29.4740 	    2.0000 	    1.0000 	   39.5203
    1.7624 	   29.8188 	    2.0000 	    1.0000 	   40.8994
    1.7472 	   30.1838 	    2.0000 	    1.0000 	   42.3595
    1.8540 	   30.5363 	    2.0000 	    1.0000 	   43.7695
    1.7929 	   30.8860 	    2.0000 	    1.0000 	   45.1686
    1.8235 	   31.2335 	    2.0000 	    1.0000 	   46.5587
    2.0066 	   31.5910 	    2.0000 	    1.0000 	   47.9888
    1.8387 	   31.9508 	    2.0000 	    1.0000 	   49.4279
    1.8540 	   32.3133 	    2.0000 	    1.0000 	   50.8779
    1.8845 	   32.6813 	    2.0000 	    1.0000 	   52.3490
    2.0066 	   33.0533 	    2.0000 	    1.0000 	   53.8371
    1.7777 	   33.4155 	    2.0000 	    1.0000 	   55.2862
    1.7166 	   33.7820 	    2.0000 	    1.0000 	   56.7523
    1.8235 	   34.1515 	    2.0000 	    1.0000 	   58.2304
    1.7929 	   34.5193 	    2.0000 	    1.0000 	   59.7015
    1.9760 	   34.8927 	    2.0000 	    2.0000 	    1.1955
    1.8845 	   35.2685 	    2.0000 	    2.0000 	    2.6986
    1.8387 	   35.6455 	    2.0000 	    2.0000 	    4.2067
    1.8845 	   36.0130 	    2.0000 	    2.0000 	    5.6768
    1.8845 	   36.3798 	    2.0000 	    2.0000 	    7.1439
    1.8235 	   36.7550 	    2.0000 	    2.0000 	    8.6440
    1.8997 	   37.1318 	    2.0000 	    2.0000 	   10.1510
    1.6861 	   37.5040 	    2.0000 	    2.0000 	   11.6401
    1.5183 	   37.8758 	    2.0000 	    2.0000 	   13.1272
    1.1215 	   38.2625 	    2.0000 	    2.0000 	   14.6743
    1.3046 	   38.6543 	    2.0000 	    2.0000 	   16.2414
    1.2589 	   39.0440 	    2.0000 	    2.0000 	   17.8005
    1.3046 	   39.4448 	    2.0000 	    2.0000 	   19.4036
    1.0452 	   39.8300 	    2.0000 	    2.0000 	   20.9447
    0.9689 	   40.2128 	    2.0000 	    2.0000 	   22.4758
    0.9537 	   40.6063 	    2.0000 	    2.0000 	   24.0498
    0.9079 	   40.9988 	    2.0000 	    2.0000 	   25.6199
    0.7095 	   41.3925 	    2.0000 	    2.0000 	   27.1940
    0.8316 	   41.7840 	    2.0000 	    2.0000 	   28.7601
    0.4959 	   42.1763 	    2.0000 	    2.0000 	   30.3292
    0.4654 	   42.5713 	    2.0000 	    2.0000 	   31.9093
    0.5570 	   42.9608 	    2.0000 	    2.0000 	   33.4674
    0.4807 	   43.3535 	    2.0000 	    2.0000 	   35.0385
    0.0534 	   43.7578 	    2.0000 	    2.0000 	   36.6556
    0.2365 	   44.1613 	    2.0000 	    2.0000 	   38.2697
    0.2365 	   44.5645 	    2.0000 	    2.0000 	   39.8828
   -0.1907 	   44.9678 	    2.0000 	    2.0000 	   41.4958
    0.1144 	   45.3740 	    2.0000 	    2.0000 	   43.1209
    0.0687 	   45.7813 	    2.0000 	    2.0000 	   44.7490
    0.0076 	   46.1945 	    2.0000 	    2.0000 	   46.4021
   -0.1297 	   46.5995 	    2.0000 	    2.0000 	   48.0222
    0.1297 	   47.0043 	    2.0000 	    2.0000 	   49.6413
    0.2518 	   47.4230 	    2.0000 	    2.0000 	   51.3164
    0.2213 	   47.8348 	    2.0000 	    2.0000 	   52.9635
   -0.0687 	   48.2458 	    2.0000 	    2.0000 	   54.6076
    0.2365 	   48.6418 	    2.0000 	    2.0000 	   56.1917
    0.1602 	   49.0428 	    2.0000 	    2.0000 	   57.7958
    0.1144 	   49.4448 	    2.0000 	    2.0000 	   59.4039
    0.0534 	   49.8570 	    2.0000 	    3.0000 	    1.0530
    0.2365 	   50.2745 	    2.0000 	    3.0000 	    2.7221
    0.0229 	   50.6980 	    2.0000 	    3.0000 	    4.4162
    0.2213 	   51.1293 	    2.0000 	    3.0000 	    6.1413
    0.0992 	   51.5428 	    2.0000 	    3.0000 	    7.7953
    0.0992 	   51.9623 	    2.0000 	    3.0000 	    9.4734
    0.0076 	   52.3858 	    2.0000 	    3.0000 	   11.1675
    0.1144 	   52.8125 	    2.0000 	    3.0000 	   12.8746
   -0.0229 	   53.2343 	    2.0000 	    3.0000 	   14.5617
    0.2060 	   53.6735 	    2.0000 	    3.0000 	   16.3188
    0.1907 	   54.1053 	    2.0000 	    3.0000 	   18.0459
    0.0076 	   54.5480 	    2.0000 	    3.0000 	   19.8160
    0.0229 	   54.9910 	    2.0000 	    3.0000 	   21.5881
    0.0534 	   55.4213 	    2.0000 	    3.0000 	   23.3092
   -0.0687 	   55.8553 	    2.0000 	    3.0000 	   25.0453
    0.2060 	   56.2920 	    2.0000 	    3.0000 	   26.7924
    0.0534 	   56.7433 	    2.0000 	    3.0000 	   28.5975
   -0.0076 	   57.1935 	    2.0000 	    3.0000 	   30.3986
    0.1144 	   57.5563 	    2.0000 	    3.0000 	   31.8497