File: instron/10_grey_3W15L_drag40_spd20.txt
Thayer School of Engineering        Instron 4442 Mechanical Testing System
6/28/2018 12:25:18 AM

  Force (N)	Extension (mm)	Not Used	Not Used	Not Used	     Hour	    Minute	    Second
    0.1144 	    0.3410 	    0.0000 	   25.0000 	   37.4227
    0.1450 	    1.0340 	    0.0000 	   25.0000 	   39.5018
    0.0229 	    1.5090 	    0.0000 	   25.0000 	   40.9269
    0.1297 	    1.9360 	    0.0000 	   25.0000 	   42.2080
    0.0687 	    2.3717 	    0.0000 	   25.0000 	   43.5151
    0.0687 	    2.7920 	    0.0000 	   25.0000 	   44.7761
    0.0839 	    3.2227 	    0.0000 	   25.0000 	   46.0682
    0.0687 	    3.6517 	    0.0000 	   25.0000 	   47.3553
    0.3128 	    4.0867 	    0.0000 	   25.0000 	   48.6604
    0.3433 	    4.5160 	    0.0000 	   25.0000 	   49.9484
    0.4654 	    4.9563 	    0.0000 	   25.0000 	   51.2695
    0.5570 	    5.3913 	    0.0000 	   25.0000 	   52.5746
    0.7858 	    5.8337 	    0.0000 	   25.0000 	   53.9017
    0.9537 	    6.2773 	    0.0000 	   25.0000 	   55.2317
    1.1215 	    6.7227 	    0.0000 	   25.0000 	   56.5678
    1.1978 	    7.1523 	    0.0000 	   25.0000 	   57.8569
    1.2741 	    7.5983 	    0.0000 	   25.0000 	   59.1950
    1.3504 	    8.0550 	    0.0000 	   26.0000 	    0.5650
    1.4115 	    8.4977 	    0.0000 	   26.0000 	    1.8931
    1.2284 	    8.9533 	    0.0000 	   26.0000 	    3.2602
    1.6556 	    9.3973 	    0.0000 	   26.0000 	    4.5923
    1.7777 	    9.8553 	    0.0000 	   26.0000 	    5.9664
    1.8540 	   10.3163 	    0.0000 	   26.0000 	    7.3494
    1.8540 	   10.7587 	    0.0000 	   26.0000 	    8.6765
    2.0371 	   11.2243 	    0.0000 	   26.0000 	   10.0736
    2.2507 	   11.6953 	    0.0000 	   26.0000 	   11.4867
    2.1592 	   12.1600 	    0.0000 	   26.0000 	   12.8798
    2.2812 	   12.6293 	    0.0000 	   26.0000 	   14.2878
    2.4338 	   13.0817 	    0.0000 	   26.0000 	   15.6449
    2.4643 	   13.5417 	    0.0000 	   26.0000 	   17.0250
    2.5864 	   14.0260 	    0.0000 	   26.0000 	   18.4781
    2.6932 	   14.5077 	    0.0000 	   26.0000 	   19.9232
    2.6474 	   14.9917 	    0.0000 	   26.0000 	   21.3752
    2.8916 	   15.4750 	    0.0000 	   26.0000 	   22.8253
    2.8763 	   15.9573 	    0.0000 	   26.0000 	   24.2724
    2.9221 	   16.4287 	    0.0000 	   26.0000 	   25.6865
    3.0289 	   16.8957 	    0.0000 	   26.0000 	   27.0876
    3.3188 	   17.3777 	    0.0000 	   26.0000 	   28.5336
    3.4104 	   17.8717 	    0.0000 	   26.0000 	   30.0147
    3.4409 	   18.3620 	    0.0000 	   26.0000 	   31.4858
    3.6240 	   18.8510 	    0.0000 	   26.0000 	   32.9529
    3.6240 	   19.3567 	    0.0000 	   26.0000 	   34.4700
    3.7461 	   19.8570 	    0.0000 	   26.0000 	   35.9711
    3.7766 	   20.3583 	    0.0000 	   26.0000 	   37.4752
    3.7766 	   20.8690 	    0.0000 	   26.0000 	   39.0072
    4.0055 	   21.3390 	    0.0000 	   26.0000 	   40.4173
    4.0818 	   21.8380 	    0.0000 	   26.0000 	   41.9144
    4.1581 	   22.3437 	    0.0000 	   26.0000 	   43.4315
    4.2802 	   22.8310 	    0.0000 	   26.0000 	   44.8936
    4.6311 	   23.3427 	    0.0000 	   26.0000 	   46.4287
    4.5548 	   23.8560 	    0.0000 	   26.0000 	   47.9668
    4.9668 	   24.3553 	    0.0000 	   26.0000 	   49.4658
    4.9363 	   24.8657 	    0.0000 	   26.0000 	   50.9969
    5.0584 	   25.3907 	    0.0000 	   26.0000 	   52.5720
    5.2873 	   25.9193 	    0.0000 	   26.0000 	   54.1581
    5.3483 	   26.4537 	    0.0000 	   26.0000 	   55.7612
    5.5161 	   26.9880 	    0.0000 	   26.0000 	   57.3643
    5.6687 	   27.5170 	    0.0000 	   26.0000 	   58.9514
    5.8061 	   28.0337 	    0.0000 	   27.0000 	    0.5015
    6.1570 	   28.5460 	    0.0000 	   27.0000 	    2.0386
    6.2333 	   29.0687 	    0.0000 	   27.0000 	    3.6067
    6.4775 	   29.5770 	    0.0000 	   27.0000 	    5.1307
    6.5690 	   30.1043 	    0.0000 	   27.0000 	    6.7128
    7.0268 	   30.6190 	    0.0000 	   27.0000 	    8.2569
    7.0268 	   31.1430 	    0.0000 	   27.0000 	    9.8290
    7.4540 	   31.6423 	    0.0000 	   27.0000 	   11.3271
    7.6982 	   32.1687 	    0.0000 	   27.0000 	   12.9062
    8.2017 	   32.7227 	    0.0000 	   27.0000 	   14.5683
    8.1712 	   33.2760 	    0.0000 	   27.0000 	   16.2284
    8.9647 	   33.8010 	    0.0000 	   27.0000 	   17.8035
    9.4072 	   34.3590 	    0.0000 	   27.0000 	   19.4776
    9.9260 	   34.8957 	    0.0000 	   27.0000 	   21.0877
   10.4753 	   35.4707 	    0.0000 	   27.0000 	   22.8118
   11.1925 	   35.9887 	    0.0000 	   27.0000 	   24.3648
   11.7266 	   36.5043 	    0.0000 	   27.0000 	   25.9129
   12.5505 	   37.0490 	    0.0000 	   27.0000 	   27.5470
   13.3898 	   37.6037 	    0.0000 	   27.0000 	   29.2111
   14.4121 	   38.1583 	    0.0000 	   27.0000 	   30.8752
   15.4803 	   38.7310 	    0.0000 	   27.0000 	   32.5933
   16.5331 	   39.2800 	    0.0000 	   27.0000 	   34.2404
   17.0977 	   39.8320 	    0.0000 	   27.0000 	   35.8965
   16.9146 	   40.3890 	    0.0000 	   27.0000 	   37.5676
   16.6705 	   40.9470 	    0.0000 	   27.0000 	   39.2417
   16.4111 	   41.5187 	    0.0000 	   27.0000 	   40.9558
   16.2890 	   42.0830 	    0.0000 	   27.0000 	   42.6489
   16.1669 	   42.6053 	    0.0000 	   27.0000 	   44.2160
   15.9991 	   43.1627 	    0.0000 	   27.0000 	   45.8881
   15.9380 	   43.7097 	    0.0000 	   27.0000 	   47.5292
   15.6786 	   44.2583 	    0.0000 	   27.0000 	   49.1753
   15.7092 	   44.8370 	    0.0000 	   27.0000 	   50.9114
   15.8618 	   45.4217 	    0.0000 	   27.0000 	   52.6655
   15.5261 	   45.9920 	    0.0000 	   27.0000 	   54.3766
   15.4803 	   46.5323 	    0.0000 	   27.0000 	   55.9977
   15.6176 	   47.0920 	    0.0000 	   27.0000 	   57.6757
   15.4040 	   47.6533 	    0.0000 	   27.0000 	   59.3598
   15.4803 	   48.2203 	    0.0000 	   28.0000 	    1.0609
   15.3124 	   48.8020 	    0.0000 	   28.0000 	    2.8060
   15.2514 	   49.3873 	    0.0000 	   28.0000 	    4.5621
   15.2361 	   49.9623 	    0.0000 	   28.0000 	    6.2872
   15.2667 	   50.5503 	    0.0000 	   28.0000 	    8.0513
   15.1904 	   51.1347 	    0.0000 	   28.0000 	    9.8044
   15.1141 	   51.7213 	    0.0000 	   28.0000 	   11.5645
   15.1751 	   52.3073 	    0.0000 	   28.0000 	   13.3226
   14.9615 	   52.8930 	    0.0000 	   28.0000 	   15.0787
   14.9462 	   53.4970 	    0.0000 	   28.0000 	   16.8908
   14.9767 	   54.0740 	    0.0000 	   28.0000 	   18.6219
   14.9462 	   54.6470 	    0.0000 	   28.0000 	   20.3410
   14.9615 	   55.2203 	    0.0000 	   28.0000 	   22.0611
   15.0378 	   55.7993 	    0.0000 	   28.0000 	   23.7982
   14.9462 	   56.4060 	    0.0000 	   28.0000 	   25.6183
   14.9157 	   56.9900 	    0.0000 	   28.0000 	   27.3704
   14.8394 	   57.5857 	    0.0000 	   28.0000 	   29.1575
   14.7784 	   58.1897 	    0.0000 	   28.0000 	   30.9697
   14.8394 	   58.7733 	    0.0000 	   28.0000 	   32.7197
   14.7173 	   59.3593 	    0.0000 	   28.0000 	   34.4779
   14.7784 	   59.9583 	    0.0000 	   28.0000 	   36.2750
   14.5800 	   60.5540 	    0.0000 	   28.0000 	   38.0621
   14.7784 	   61.1767 	    0.0000 	   28.0000 	   39.9302
   12.6116 	   61.8063 	    0.0000 	   28.0000 	   41.8193
   10.3685 	   62.4417 	    0.0000 	   28.0000 	   43.7254
    9.0410 	   63.0680 	    0.0000 	   28.0000 	   45.6045
    8.0186 	   63.7003 	    0.0000 	   28.0000 	   47.5016
    7.2251 	   64.3340 	    0.0000 	   28.0000 	   49.4027
    6.5690 	   64.9587 	    0.0000 	   28.0000 	   51.2758
    5.8366 	   65.5893 	    0.0000 	   28.0000 	   53.1679
    5.7755 	   66.2173 	    0.0000 	   28.0000 	   55.0520
    5.4704 	   66.8490 	    0.0000 	   28.0000 	   56.9471
    5.1041 	   67.4820 	    0.0000 	   28.0000 	   58.8462
    5.0126 	   68.1223 	    0.0000 	   29.0000 	    0.7674
    4.7532 	   68.7553 	    0.0000 	   29.0000 	    2.6665
    4.5548 	   69.3967 	    0.0000 	   29.0000 	    4.5906
    4.2954 	   70.0293 	    0.0000 	   29.0000 	    6.4887
    4.1886 	   70.6643 	    0.0000 	   29.0000 	    8.3928
    3.9445 	   71.3123 	    0.0000 	   29.0000 	   10.3369
    3.8224 	   71.9607 	    0.0000 	   29.0000 	   12.2820
    3.5935 	   72.6190 	    0.0000 	   29.0000 	   14.2571
    3.6240 	   73.2657 	    0.0000 	   29.0000 	   16.1972
    3.5935 	   73.9327 	    0.0000 	   29.0000 	   18.1984
    3.2120 	   74.6027 	    0.0000 	   29.0000 	   20.2085
    3.3188 	   75.2507 	    0.0000 	   29.0000 	   22.1526
    3.0594 	   75.9153 	    0.0000 	   29.0000 	   24.1467
    2.9679 	   76.5907 	    0.0000 	   29.0000 	   26.1718
    2.9221 	   77.2723 	    0.0000 	   29.0000 	   28.2169
    2.7085 	   77.9543 	    0.0000 	   29.0000 	   30.2630
    2.6474 	   78.6247 	    0.0000 	   29.0000 	   32.2742
    2.4643 	   79.3087 	    0.0000 	   29.0000 	   34.3263
    2.4796 	   79.9887 	    0.0000 	   29.0000 	   36.3664
    2.3117 	   80.6687 	    0.0000 	   29.0000 	   38.4065
    2.2507 	   81.3563 	    0.0000 	   29.0000 	   40.4696
    2.1897 	   82.0560 	    0.0000 	   29.0000 	   42.5677
    1.9608 	   82.7747 	    0.0000 	   29.0000 	   44.7239
    1.9455 	   83.4923 	    0.0000 	   29.0000 	   46.8770
    1.6709 	   84.2057 	    0.0000 	   29.0000 	   49.0171
    1.9150 	   84.9040 	    0.0000 	   29.0000 	   51.1122
    1.5946 	   85.6133 	    0.0000 	   29.0000 	   53.2404
    1.5640 	   86.3270 	    0.0000 	   29.0000 	   55.3815
    1.4725 	   87.0450 	    0.0000 	   29.0000 	   57.5356
    1.2436 	   87.7673 	    0.0000 	   29.0000 	   59.7017
    1.1673 	   88.4890 	    0.0000 	   30.0000 	    1.8668
    1.0452 	   89.2090 	    0.0000 	   30.0000 	    4.0270
    1.0300 	   89.9400 	    0.0000 	   30.0000 	    6.2201
    0.5722 	   90.6713 	    0.0000 	   30.0000 	    8.4142
    0.7248 	   91.4017 	    0.0000 	   30.0000 	   10.6054
    0.5722 	   92.1390 	    0.0000 	   30.0000 	   12.8175
    0.5112 	   92.8820 	    0.0000 	   30.0000 	   15.0466
    0.2518 	   93.6177 	    0.0000 	   30.0000 	   17.2527
    0.1602 	   94.3430 	    0.0000 	   30.0000 	   19.4289
    0.1450 	   95.0927 	    0.0000 	   30.0000 	   21.6780
    0.1602 	   95.8577 	    0.0000 	   30.0000 	   23.9731