File: instron/10_grey_1W15L_drag40_spd15.txt
Thayer School of Engineering        Instron 4442 Mechanical Testing System
6/28/2018 3:08:00 AM

  Force (N)	Extension (mm)	Not Used	Not Used	Not Used	     Hour	    Minute	    Second
    0.2823 	    0.2538 	    3.0000 	    8.0000 	   13.4117
    0.2365 	    0.7630 	    3.0000 	    8.0000 	   15.4489
    0.0534 	    1.1003 	    3.0000 	    8.0000 	   16.7979
    0.2213 	    1.4318 	    3.0000 	    8.0000 	   18.1240
    0.1450 	    1.7370 	    3.0000 	    8.0000 	   19.3451
    0.3586 	    2.0230 	    3.0000 	    8.0000 	   20.4891
    0.3433 	    2.3368 	    3.0000 	    8.0000 	   21.7442
    0.4044 	    2.6453 	    3.0000 	    8.0000 	   22.9783
    0.4501 	    2.9578 	    3.0000 	    8.0000 	   24.2284
    0.2518 	    3.2855 	    3.0000 	    8.0000 	   25.5384
    0.5570 	    3.6178 	    3.0000 	    8.0000 	   26.8675
    0.6180 	    3.9268 	    3.0000 	    8.0000 	   28.1036
    0.5264 	    4.2530 	    3.0000 	    8.0000 	   29.4076
    0.6485 	    4.5805 	    3.0000 	    8.0000 	   30.7187
    0.6638 	    4.9005 	    3.0000 	    8.0000 	   31.9988
    0.6638 	    5.2333 	    3.0000 	    8.0000 	   33.3299
    0.7858 	    5.5835 	    3.0000 	    8.0000 	   34.7310
    0.4044 	    5.9248 	    3.0000 	    8.0000 	   36.0960
    0.8011 	    6.2608 	    3.0000 	    8.0000 	   37.4401
    0.8774 	    6.5895 	    3.0000 	    8.0000 	   38.7552
    0.8164 	    6.9380 	    3.0000 	    8.0000 	   40.1493
    1.0147 	    7.2778 	    3.0000 	    8.0000 	   41.5083
    1.2436 	    7.6280 	    3.0000 	    8.0000 	   42.9084
    0.9232 	    7.9823 	    3.0000 	    8.0000 	   44.3255
    0.8927 	    8.3235 	    3.0000 	    8.0000 	   45.6906
    1.2284 	    8.6665 	    3.0000 	    8.0000 	   47.0627
    1.1368 	    9.0160 	    3.0000 	    8.0000 	   48.4607
    0.9995 	    9.3645 	    3.0000 	    8.0000 	   49.8548
    1.3352 	    9.7275 	    3.0000 	    8.0000 	   51.3069
    1.0910 	   10.0850 	    3.0000 	    8.0000 	   52.7370
    0.9079 	   10.4485 	    3.0000 	    8.0000 	   54.1911
    1.3504 	   10.8180 	    3.0000 	    8.0000 	   55.6692
    1.2436 	   11.1983 	    3.0000 	    8.0000 	   57.1902
    1.4115 	   11.5750 	    3.0000 	    8.0000 	   58.6973
    1.3352 	   11.9350 	    3.0000 	    9.0000 	    0.1364
    1.2894 	   12.3040 	    3.0000 	    9.0000 	    1.6125
    1.4725 	   12.6825 	    3.0000 	    9.0000 	    3.1266
    1.3962 	   13.0643 	    3.0000 	    9.0000 	    4.6537
    1.4878 	   13.4530 	    3.0000 	    9.0000 	    6.2088
    1.4420 	   13.8328 	    3.0000 	    9.0000 	    7.7278
    1.4267 	   14.2098 	    3.0000 	    9.0000 	    9.2359
    1.4725 	   14.6020 	    3.0000 	    9.0000 	   10.8050
    1.5488 	   14.9928 	    3.0000 	    9.0000 	   12.3681
    1.5640 	   15.3813 	    3.0000 	    9.0000 	   13.9222
    1.5946 	   15.7740 	    3.0000 	    9.0000 	   15.4933
    1.7624 	   16.1825 	    3.0000 	    9.0000 	   17.1264
    1.5946 	   16.5710 	    3.0000 	    9.0000 	   18.6805
    1.7777 	   16.9513 	    3.0000 	    9.0000 	   20.2016
    1.7929 	   17.3435 	    3.0000 	    9.0000 	   21.7706
    1.7472 	   17.7280 	    3.0000 	    9.0000 	   23.3087
    1.7319 	   18.1275 	    3.0000 	    9.0000 	   24.9068
    1.8692 	   18.5425 	    3.0000 	    9.0000 	   26.5669
    1.8235 	   18.9418 	    3.0000 	    9.0000 	   28.1640
    1.9608 	   19.3440 	    3.0000 	    9.0000 	   29.7731
    1.9150 	   19.7505 	    3.0000 	    9.0000 	   31.3992
    1.8387 	   20.1598 	    3.0000 	    9.0000 	   33.0363
    2.1592 	   20.5833 	    3.0000 	    9.0000 	   34.7294
    2.1592 	   20.9970 	    3.0000 	    9.0000 	   36.3845
    1.7319 	   21.4150 	    3.0000 	    9.0000 	   38.0566
    2.2354 	   21.8383 	    3.0000 	    9.0000 	   39.7497
    2.2812 	   22.2698 	    3.0000 	    9.0000 	   41.4758
    2.1592 	   22.6940 	    3.0000 	    9.0000 	   43.1729
    2.0981 	   23.1138 	    3.0000 	    9.0000 	   44.8520
    2.1439 	   23.5443 	    3.0000 	    9.0000 	   46.5741
    2.4338 	   23.9755 	    3.0000 	    9.0000 	   48.2992
    2.5406 	   24.3960 	    3.0000 	    9.0000 	   49.9813
    2.4796 	   24.8195 	    3.0000 	    9.0000 	   51.6754
    2.5254 	   25.2553 	    3.0000 	    9.0000 	   53.4175
    2.5864 	   25.6825 	    3.0000 	    9.0000 	   55.1266
    2.6932 	   26.1160 	    3.0000 	    9.0000 	   56.8607
    2.6627 	   26.5508 	    3.0000 	    9.0000 	   58.5998
    2.7390 	   26.9910 	    3.0000 	   10.0000 	    0.3609
    2.8763 	   27.4310 	    3.0000 	   10.0000 	    2.1210
    2.8305 	   27.8698 	    3.0000 	   10.0000 	    3.8761
    3.0442 	   28.3008 	    3.0000 	   10.0000 	    5.6002
    2.7848 	   28.7448 	    3.0000 	   10.0000 	    7.3763
    3.1052 	   29.1910 	    3.0000 	   10.0000 	    9.1614
    3.0442 	   29.6375 	    3.0000 	   10.0000 	   10.9465
    3.3494 	   30.0798 	    3.0000 	   10.0000 	   12.7156
    3.1357 	   30.5295 	    3.0000 	   10.0000 	   14.5147
    3.2883 	   30.9735 	    3.0000 	   10.0000 	   16.2908
    3.1815 	   31.4230 	    3.0000 	   10.0000 	   18.0889
    3.2425 	   31.8843 	    3.0000 	   10.0000 	   19.9340
    3.1357 	   32.3273 	    3.0000 	   10.0000 	   21.7061
    3.2731 	   32.7825 	    3.0000 	   10.0000 	   23.5272
    3.3188 	   33.2365 	    3.0000 	   10.0000 	   25.3433
    3.1510 	   33.6855 	    3.0000 	   10.0000 	   27.1384
    3.0900 	   34.1425 	    3.0000 	   10.0000 	   28.9665
    3.1205 	   34.6058 	    3.0000 	   10.0000 	   30.8196
    3.1357 	   35.0633 	    3.0000 	   10.0000 	   32.6497
    3.1052 	   35.5312 	    3.0000 	   10.0000 	   34.5218
    3.1510 	   35.9918 	    3.0000 	   10.0000 	   36.3639
    3.1357 	   36.4643 	    3.0000 	   10.0000 	   38.2540
    2.9221 	   36.9295 	    3.0000 	   10.0000 	   40.1151
    3.0289 	   37.4080 	    3.0000 	   10.0000 	   42.0292
    2.7390 	   37.8773 	    3.0000 	   10.0000 	   43.9063
    3.0289 	   38.3535 	    3.0000 	   10.0000 	   45.8105
    3.1968 	   38.8330 	    3.0000 	   10.0000 	   47.7286
    2.9984 	   39.3183 	    3.0000 	   10.0000 	   49.6697
    3.0289 	   39.8078 	    3.0000 	   10.0000 	   51.6278
    2.9679 	   40.2988 	    3.0000 	   10.0000 	   53.5919
    3.1052 	   40.7823 	    3.0000 	   10.0000 	   55.5260
    3.0594 	   41.2743 	    3.0000 	   10.0000 	   57.4941
    3.1205 	   41.7698 	    3.0000 	   10.0000 	   59.4762
    3.1357 	   42.2678 	    3.0000 	   11.0000 	    1.4683
    3.1510 	   42.7703 	    3.0000 	   11.0000 	    3.4775
    3.0289 	   43.2740 	    3.0000 	   11.0000 	    5.4926
    2.9526 	   43.7753 	    3.0000 	   11.0000 	    7.4977
    2.9374 	   44.2865 	    3.0000 	   11.0000 	    9.5428
    2.8916 	   44.7923 	    3.0000 	   11.0000 	   11.5659
    3.1357 	   45.3028 	    3.0000 	   11.0000 	   13.6080
    3.0442 	   45.8148 	    3.0000 	   11.0000 	   15.6562
    2.6780 	   46.3325 	    3.0000 	   11.0000 	   17.7273
    2.9679 	   46.8448 	    3.0000 	   11.0000 	   19.7754
    2.7390 	   47.3573 	    3.0000 	   11.0000 	   21.8255
    2.5864 	   47.8625 	    3.0000 	   11.0000 	   23.8466
    2.4796 	   48.3790 	    3.0000 	   11.0000 	   25.9127
    2.3880 	   48.8898 	    3.0000 	   11.0000 	   27.9559
    2.2202 	   49.4103 	    3.0000 	   11.0000 	   30.0380
    2.2202 	   49.9363 	    3.0000 	   11.0000 	   32.1421
    2.2202 	   50.4630 	    3.0000 	   11.0000 	   34.2492
    2.1744 	   50.9990 	    3.0000 	   11.0000 	   36.3933
    2.0218 	   51.5365 	    3.0000 	   11.0000 	   38.5425
    1.8235 	   52.0723 	    3.0000 	   11.0000 	   40.6856
    1.8540 	   52.6095 	    3.0000 	   11.0000 	   42.8347
    1.8845 	   53.1420 	    3.0000 	   11.0000 	   44.9648
    1.8692 	   53.6860 	    3.0000 	   11.0000 	   47.1410
    1.6098 	   54.2388 	    3.0000 	   11.0000 	   49.3521
    1.5488 	   54.7825 	    3.0000 	   11.0000 	   51.5272
    1.4420 	   55.3203 	    3.0000 	   11.0000 	   53.6783
    1.2436 	   55.8648 	    3.0000 	   11.0000 	   55.8555
    1.3809 	   56.4138 	    3.0000 	   11.0000 	   58.0516
    1.3809 	   56.9710 	    3.0000 	   12.0000 	    0.2807
    1.3657 	   57.5345 	    3.0000 	   12.0000 	    2.5348
    1.3809 	   58.0810 	    3.0000 	   12.0000 	    4.7210
    1.3504 	   58.6433 	    3.0000 	   12.0000 	    6.9701
    1.3809 	   59.2025 	    3.0000 	   12.0000 	    9.2072
    1.1826 	   59.7565 	    3.0000 	   12.0000 	   11.4233
    1.0910 	   60.3195 	    3.0000 	   12.0000 	   13.6745
    1.3962 	   60.8920 	    3.0000 	   12.0000 	   15.9646
    1.2741 	   61.4580 	    3.0000 	   12.0000 	   18.2287
    0.9384 	   62.0388 	    3.0000 	   12.0000 	   20.5519
    0.9842 	   62.6078 	    3.0000 	   12.0000 	   22.8280
    0.8774 	   63.1788 	    3.0000 	   12.0000 	   25.1121
    1.0758 	   63.7488 	    3.0000 	   12.0000 	   27.3923
    0.7401 	   64.3145 	    3.0000 	   12.0000 	   29.6544
    0.6943 	   64.8983 	    3.0000 	   12.0000 	   31.9895
    0.7706 	   65.4820 	    3.0000 	   12.0000 	   34.3247
    0.7095 	   66.0715 	    3.0000 	   12.0000 	   36.6828
    0.6638 	   66.6583 	    3.0000 	   12.0000 	   39.0299
    0.6485 	   67.2433 	    3.0000 	   12.0000 	   41.3691
    0.5112 	   67.8320 	    3.0000 	   12.0000 	   43.7252
    0.6638 	   68.4305 	    3.0000 	   12.0000 	   46.1193
    0.4501 	   69.0283 	    3.0000 	   12.0000 	   48.5095
    0.3433 	   69.6265 	    3.0000 	   12.0000 	   50.9026
    0.3586 	   70.2183 	    3.0000 	   12.0000 	   53.2697
    0.4807 	   70.8223 	    3.0000 	   12.0000 	   55.6859
    0.3738 	   71.4220 	    3.0000 	   12.0000 	   58.0850
    0.1297 	   72.0278 	    3.0000 	   13.0000 	    0.5082
    0.1297 	   72.6338 	    3.0000 	   13.0000 	    2.9323
    0.1907 	   73.2383 	    3.0000 	   13.0000 	    5.3494
    0.1907 	   73.8372 	    3.0000 	   13.0000 	    7.7456
   -0.1602 	   74.4523 	    3.0000 	   13.0000 	   10.2057
    0.0992 	   75.0705 	    3.0000 	   13.0000 	   12.6789
    0.1755 	   75.6810 	    3.0000 	   13.0000 	   15.1210
    0.2518 	   76.2965 	    3.0000 	   13.0000 	   17.5831
    0.2518 	   76.9245 	    3.0000 	   13.0000 	   20.0953
    0.1602 	   77.5573 	    3.0000 	   13.0000 	   22.6254
    0.0992 	   78.1765 	    3.0000 	   13.0000 	   25.1026
    0.0839 	   78.3658 	    3.0000 	   13.0000 	   25.8596