File: instron/10_grey_3W15L_drag40_spd10.txt
Thayer School of Engineering        Instron 4442 Mechanical Testing System
6/28/2018 12:08:06 AM

  Force (N)	Extension (mm)	Not Used	Not Used	Not Used	     Hour	    Minute	    Second
    0.0687 	    0.1708 	    0.0000 	    9.0000 	   27.2822
    0.0076 	    0.6353 	    0.0000 	    9.0000 	   30.0694
    0.1450 	    0.9635 	    0.0000 	    9.0000 	   32.0385
    0.0687 	    1.2888 	    0.0000 	    9.0000 	   33.9906
    0.0381 	    1.6207 	    0.0000 	    9.0000 	   35.9817
    0.1144 	    1.9462 	    0.0000 	    9.0000 	   37.9338
    0.0381 	    2.2728 	    0.0000 	    9.0000 	   39.8940
    0.2976 	    2.5983 	    0.0000 	    9.0000 	   41.8471
    0.3128 	    2.9375 	    0.0000 	    9.0000 	   43.8822
    0.3433 	    3.2798 	    0.0000 	    9.0000 	   45.9363
    0.2365 	    3.6303 	    0.0000 	    9.0000 	   48.0394
    0.4044 	    3.9812 	    0.0000 	    9.0000 	   50.1445
    0.3738 	    4.3228 	    0.0000 	    9.0000 	   52.1947
    0.5722 	    4.6770 	    0.0000 	    9.0000 	   54.3188
    0.5112 	    5.0378 	    0.0000 	    9.0000 	   56.4839
    0.6180 	    5.3982 	    0.0000 	    9.0000 	   58.6460
    0.6943 	    5.7492 	    0.0000 	   10.0000 	    0.7522
    0.9079 	    6.1078 	    0.0000 	   10.0000 	    2.9043
    1.1368 	    6.4713 	    0.0000 	   10.0000 	    5.0854
    0.8011 	    6.8183 	    0.0000 	   10.0000 	    7.1675
    1.0758 	    7.1830 	    0.0000 	   10.0000 	    9.3556
    1.0147 	    7.5263 	    0.0000 	   10.0000 	   11.4158
    1.4115 	    7.8928 	    0.0000 	   10.0000 	   13.6139
    1.6403 	    8.2633 	    0.0000 	   10.0000 	   15.8370
    1.4115 	    8.6418 	    0.0000 	   10.0000 	   18.1081
    1.7472 	    9.0008 	    0.0000 	   10.0000 	   20.2613
    1.7929 	    9.3787 	    0.0000 	   10.0000 	   22.5294
    1.9303 	    9.7592 	    0.0000 	   10.0000 	   24.8125
    1.7777 	   10.1390 	    0.0000 	   10.0000 	   27.0907
    1.9760 	   10.5260 	    0.0000 	   10.0000 	   29.4128
    2.0066 	   10.9222 	    0.0000 	   10.0000 	   31.7899
    2.2049 	   11.3113 	    0.0000 	   10.0000 	   34.1251
    2.1592 	   11.7173 	    0.0000 	   10.0000 	   36.5602
    2.2965 	   12.1225 	    0.0000 	   10.0000 	   38.9923
    2.5101 	   12.4985 	    0.0000 	   10.0000 	   41.2485
    2.5254 	   12.8707 	    0.0000 	   10.0000 	   43.4816
    2.5864 	   13.2353 	    0.0000 	   10.0000 	   45.6697
    2.5864 	   13.6098 	    0.0000 	   10.0000 	   47.9158
    2.7390 	   13.9913 	    0.0000 	   10.0000 	   50.2050
    2.7085 	   14.3688 	    0.0000 	   10.0000 	   52.4701
    2.5559 	   14.7913 	    0.0000 	   10.0000 	   55.0053
    2.8916 	   15.2160 	    0.0000 	   10.0000 	   57.5534
    2.9831 	   15.6435 	    0.0000 	   11.0000 	    0.1185
    3.0442 	   16.0685 	    0.0000 	   11.0000 	    2.6687
    3.1052 	   16.4970 	    0.0000 	   11.0000 	    5.2388
    3.2578 	   16.9272 	    0.0000 	   11.0000 	    7.8200
    3.2883 	   17.3667 	    0.0000 	   11.0000 	   10.4571
    3.3494 	   17.8017 	    0.0000 	   11.0000 	   13.0673
    3.5630 	   18.2197 	    0.0000 	   11.0000 	   15.5754
    3.5019 	   18.6522 	    0.0000 	   11.0000 	   18.1706
    3.6088 	   19.0873 	    0.0000 	   11.0000 	   20.7817
    3.7919 	   19.5305 	    0.0000 	   11.0000 	   23.4399
    3.9139 	   19.9742 	    0.0000 	   11.0000 	   26.1020
    3.8071 	   20.4130 	    0.0000 	   11.0000 	   28.7352
    3.9445 	   20.8545 	    0.0000 	   11.0000 	   31.3843
    4.0360 	   21.3062 	    0.0000 	   11.0000 	   34.0945
    4.2954 	   21.7638 	    0.0000 	   11.0000 	   36.8406
    4.2649 	   22.2143 	    0.0000 	   11.0000 	   39.5428
    4.3870 	   22.6728 	    0.0000 	   11.0000 	   42.2940
    4.5548 	   23.1343 	    0.0000 	   11.0000 	   45.0631
    4.3565 	   23.5965 	    0.0000 	   11.0000 	   47.8363
    4.6159 	   24.0583 	    0.0000 	   11.0000 	   50.6074
    4.9363 	   24.5217 	    0.0000 	   11.0000 	   53.3876
    4.9668 	   24.9912 	    0.0000 	   11.0000 	   56.2048
    5.1499 	   25.4653 	    0.0000 	   11.0000 	   59.0489
    5.3178 	   25.9342 	    0.0000 	   12.0000 	    1.8621
    5.3025 	   26.3902 	    0.0000 	   12.0000 	    4.5982
    5.5619 	   26.8263 	    0.0000 	   12.0000 	    7.2154
    5.5619 	   27.2678 	    0.0000 	   12.0000 	    9.8645
    5.8518 	   27.7098 	    0.0000 	   12.0000 	   12.5167
    5.9586 	   28.1563 	    0.0000 	   12.0000 	   15.1948
    6.1418 	   28.5998 	    0.0000 	   12.0000 	   17.8560
    6.2638 	   29.0480 	    0.0000 	   12.0000 	   20.5451
    6.5080 	   29.4937 	    0.0000 	   12.0000 	   23.2193
    6.7063 	   29.9452 	    0.0000 	   12.0000 	   25.9285
    6.8589 	   30.3988 	    0.0000 	   12.0000 	   28.6506
    7.0115 	   30.8613 	    0.0000 	   12.0000 	   31.4258
    7.3625 	   31.3412 	    0.0000 	   12.0000 	   34.3039
    7.7897 	   31.8322 	    0.0000 	   12.0000 	   37.2501
    7.9423 	   32.3043 	    0.0000 	   12.0000 	   40.0833
    8.1559 	   32.7697 	    0.0000 	   12.0000 	   42.8754
    8.4916 	   33.2427 	    0.0000 	   12.0000 	   45.7136
    8.9647 	   33.7098 	    0.0000 	   12.0000 	   48.5167
    9.2699 	   34.1797 	    0.0000 	   12.0000 	   51.3349
    9.6666 	   34.6562 	    0.0000 	   12.0000 	   54.1941
    9.9565 	   35.1658 	    0.0000 	   12.0000 	   57.2522
   10.7042 	   35.6713 	    0.0000 	   13.0000 	    0.2854
   11.4519 	   36.1843 	    0.0000 	   13.0000 	    3.3636
   12.0928 	   36.6780 	    0.0000 	   13.0000 	    6.3258
   12.8557 	   37.1772 	    0.0000 	   13.0000 	    9.3199
   13.7407 	   37.6982 	    0.0000 	   13.0000 	   12.4461
   14.5800 	   38.2148 	    0.0000 	   13.0000 	   15.5463
   15.2056 	   38.7357 	    0.0000 	   13.0000 	   18.6715
   16.2585 	   39.2667 	    0.0000 	   13.0000 	   21.8577
   15.6786 	   39.7853 	    0.0000 	   13.0000 	   24.9688
   15.3429 	   40.3145 	    0.0000 	   13.0000 	   28.1440
   15.2209 	   40.8503 	    0.0000 	   13.0000 	   31.3592
   15.0072 	   41.3755 	    0.0000 	   13.0000 	   34.5104
   14.9615 	   41.9020 	    0.0000 	   13.0000 	   37.6696
   14.7478 	   42.4328 	    0.0000 	   13.0000 	   40.8547
   14.4732 	   42.9683 	    0.0000 	   13.0000 	   44.0669
   14.5342 	   43.4973 	    0.0000 	   13.0000 	   47.2411
   14.6258 	   44.0215 	    0.0000 	   13.0000 	   50.3863
   14.6258 	   44.5462 	    0.0000 	   13.0000 	   53.5345
   14.3969 	   45.0875 	    0.0000 	   13.0000 	   56.7826
   14.1527 	   45.6257 	    0.0000 	   14.0000 	    0.0108
   14.2901 	   46.1670 	    0.0000 	   14.0000 	    3.2590
   14.2138 	   46.7073 	    0.0000 	   14.0000 	    6.5012
   14.2748 	   47.2510 	    0.0000 	   14.0000 	    9.7634
   14.2443 	   47.7955 	    0.0000 	   14.0000 	   13.0306
   14.2748 	   48.3518 	    0.0000 	   14.0000 	   16.3688
   14.2290 	   48.9042 	    0.0000 	   14.0000 	   19.6820
   14.0764 	   49.4550 	    0.0000 	   14.0000 	   22.9871
   14.2748 	   50.0168 	    0.0000 	   14.0000 	   26.3583
   13.9696 	   50.5727 	    0.0000 	   14.0000 	   29.6935
   11.6197 	   51.1302 	    0.0000 	   14.0000 	   33.0387
    9.8802 	   51.6857 	    0.0000 	   14.0000 	   36.3709
    8.7968 	   52.2388 	    0.0000 	   14.0000 	   39.6901
    7.7592 	   52.7980 	    0.0000 	   14.0000 	   43.0453
    7.2251 	   53.3615 	    0.0000 	   14.0000 	   46.4265
    6.6911 	   53.9390 	    0.0000 	   14.0000 	   49.8917
    6.4775 	   54.5128 	    0.0000 	   14.0000 	   53.3339
    5.9129 	   55.0883 	    0.0000 	   14.0000 	   56.7871
    5.5314 	   55.6775 	    0.0000 	   15.0000 	    0.3223
    5.3330 	   56.2633 	    0.0000 	   15.0000 	    3.8375
    5.1804 	   56.8572 	    0.0000 	   15.0000 	    7.4007
    4.8447 	   57.4358 	    0.0000 	   15.0000 	   10.8719
    4.7074 	   58.0135 	    0.0000 	   15.0000 	   14.3381
    4.4633 	   58.6020 	    0.0000 	   15.0000 	   17.8693
    4.3717 	   59.2028 	    0.0000 	   15.0000 	   21.4745
    4.1276 	   59.8005 	    0.0000 	   15.0000 	   25.0607
    4.0818 	   60.3985 	    0.0000 	   15.0000 	   28.6479
    3.8682 	   61.0070 	    0.0000 	   15.0000 	   32.2991
    3.8682 	   61.6163 	    0.0000 	   15.0000 	   35.9553
    3.6545 	   62.2220 	    0.0000 	   15.0000 	   39.5895
    3.4257 	   62.8332 	    0.0000 	   15.0000 	   43.2567
    3.3951 	   63.4452 	    0.0000 	   15.0000 	   46.9280
    3.2273 	   64.0630 	    0.0000 	   15.0000 	   50.6352
    3.0137 	   64.6822 	    0.0000 	   15.0000 	   54.3504
    2.9374 	   65.3002 	    0.0000 	   15.0000 	   58.0586
    2.9984 	   65.9280 	    0.0000 	   16.0000 	    1.8248
    2.8153 	   66.5613 	    0.0000 	   16.0000 	    5.6250
    2.7543 	   67.1897 	    0.0000 	   16.0000 	    9.3952
    2.5101 	   67.8198 	    0.0000 	   16.0000 	   13.1765
    2.5254 	   68.4515 	    0.0000 	   16.0000 	   16.9667
    2.4491 	   69.0902 	    0.0000 	   16.0000 	   20.7979
    2.2812 	   69.7277 	    0.0000 	   16.0000 	   24.6231
    2.2202 	   70.3717 	    0.0000 	   16.0000 	   28.4873
    2.3423 	   71.0300 	    0.0000 	   16.0000 	   32.4376
    2.0523 	   71.6783 	    0.0000 	   16.0000 	   36.3268
    1.9150 	   72.3463 	    0.0000 	   16.0000 	   40.3350
    1.7624 	   73.0017 	    0.0000 	   16.0000 	   44.2672
    1.6861 	   73.6535 	    0.0000 	   16.0000 	   48.1785
    1.7319 	   74.3153 	    0.0000 	   16.0000 	   52.1497
    1.6251 	   74.9782 	    0.0000 	   16.0000 	   56.1259
    1.6251 	   75.6375 	    0.0000 	   17.0000 	    0.0821
    1.2894 	   76.2915 	    0.0000 	   17.0000 	    4.0064
    1.3504 	   76.9468 	    0.0000 	   17.0000 	    7.9386
    1.1826 	   77.6172 	    0.0000 	   17.0000 	   11.9598
    1.1673 	   78.2997 	    0.0000 	   17.0000 	   16.0550
    0.8469 	   78.9740 	    0.0000 	   17.0000 	   20.1013
    0.8774 	   79.6582 	    0.0000 	   17.0000 	   24.2065
    0.8316 	   80.3255 	    0.0000 	   17.0000 	   28.2107
    0.5417 	   80.9953 	    0.0000 	   17.0000 	   32.2290
    0.5264 	   81.6650 	    0.0000 	   17.0000 	   36.2472
    0.3128 	   82.3425 	    0.0000 	   17.0000 	   40.3124
    0.1297 	   83.0475 	    0.0000 	   17.0000 	   44.5427
    0.2060 	   83.7553 	    0.0000 	   17.0000 	   48.7889
    0.2213 	   84.4445 	    0.0000 	   17.0000 	   52.9242
    0.1450 	   84.6135 	    0.0000 	   17.0000 	   53.9382