File: instron/10_grey_2W15L_drag30_spd15.txt
Thayer School of Engineering        Instron 4442 Mechanical Testing System
6/28/2018 1:31:21 AM

  Force (N)	Extension (mm)	Not Used	Not Used	Not Used	     Hour	    Minute	    Second
    0.0076 	    0.2565 	    1.0000 	   31.0000 	   36.9822
    0.1450 	    0.8330 	    1.0000 	   31.0000 	   39.2883
    0.1144 	    1.2438 	    1.0000 	   31.0000 	   40.9314
    0.0992 	    1.6333 	    1.0000 	   31.0000 	   42.4895
    0.0992 	    2.0255 	    1.0000 	   31.0000 	   44.0586
    0.2518 	    2.4130 	    1.0000 	   31.0000 	   45.6087
    0.1755 	    2.8170 	    1.0000 	   31.0000 	   47.2248
    0.0992 	    3.2155 	    1.0000 	   31.0000 	   48.8179
    0.2670 	    3.6183 	    1.0000 	   31.0000 	   50.4290
   -0.0229 	    4.0258 	    1.0000 	   31.0000 	   52.0591
    0.0839 	    4.4355 	    1.0000 	   31.0000 	   53.6982
    0.1144 	    4.8490 	    1.0000 	   31.0000 	   55.3522
    0.1297 	    5.2688 	    1.0000 	   31.0000 	   57.0313
    0.2518 	    5.6943 	    1.0000 	   31.0000 	   58.7334
    0.0534 	    6.1208 	    1.0000 	   32.0000 	    0.4395
   -0.0229 	    6.5528 	    1.0000 	   32.0000 	    2.1676
    0.1297 	    6.9783 	    1.0000 	   32.0000 	    3.8697
   -0.0534 	    7.4223 	    1.0000 	   32.0000 	    5.6458
    0.0992 	    7.8678 	    1.0000 	   32.0000 	    7.4269
    0.1297 	    8.2950 	    1.0000 	   32.0000 	    9.1360
    0.3281 	    8.7165 	    1.0000 	   32.0000 	   10.8221
    0.6180 	    9.1683 	    1.0000 	   32.0000 	   12.6292
    0.6332 	    9.6108 	    1.0000 	   32.0000 	   14.3993
    0.9842 	   10.0583 	    1.0000 	   32.0000 	   16.1894
    0.8621 	   10.4983 	    1.0000 	   32.0000 	   17.9495
    0.9842 	   10.9468 	    1.0000 	   32.0000 	   19.7436
    1.1215 	   11.3908 	    1.0000 	   32.0000 	   21.5197
    1.2284 	   11.8398 	    1.0000 	   32.0000 	   23.3158
    1.3657 	   12.2963 	    1.0000 	   32.0000 	   25.1410
    1.4267 	   12.7540 	    1.0000 	   32.0000 	   26.9721
    1.5030 	   13.1788 	    1.0000 	   32.0000 	   28.6712
    1.6861 	   13.6418 	    1.0000 	   32.0000 	   30.5233
    1.6556 	   14.1115 	    1.0000 	   32.0000 	   32.4024
    1.8387 	   14.5848 	    1.0000 	   32.0000 	   34.2955
    1.9760 	   15.0428 	    1.0000 	   32.0000 	   36.1276
    1.9760 	   15.4938 	    1.0000 	   32.0000 	   37.9317
    2.2660 	   15.9743 	    1.0000 	   32.0000 	   39.8538
    2.0676 	   16.4565 	    1.0000 	   32.0000 	   41.7819
    2.0981 	   16.9385 	    1.0000 	   32.0000 	   43.7100
    2.2507 	   17.4130 	    1.0000 	   32.0000 	   45.6081
    2.4643 	   17.8860 	    1.0000 	   32.0000 	   47.5002
    2.4796 	   18.3695 	    1.0000 	   32.0000 	   49.4343
    2.5101 	   18.8450 	    1.0000 	   32.0000 	   51.3365
    2.6322 	   19.3210 	    1.0000 	   32.0000 	   53.2406
    2.6780 	   19.7808 	    1.0000 	   32.0000 	   55.0797
    2.7848 	   20.2798 	    1.0000 	   32.0000 	   57.0758
    2.9374 	   20.7595 	    1.0000 	   32.0000 	   58.9939
    2.8000 	   21.2403 	    1.0000 	   33.0000 	    0.9170
    3.0137 	   21.7103 	    1.0000 	   33.0000 	    2.7971
    3.2578 	   22.1905 	    1.0000 	   33.0000 	    4.7182
    3.3494 	   22.6905 	    1.0000 	   33.0000 	    6.7183
    3.3951 	   23.1923 	    1.0000 	   33.0000 	    8.7254
    3.6698 	   23.6948 	    1.0000 	   33.0000 	   10.7356
    3.7308 	   24.1640 	    1.0000 	   33.0000 	   12.6127
    3.7613 	   24.6503 	    1.0000 	   33.0000 	   14.5578
    3.8529 	   25.1150 	    1.0000 	   33.0000 	   16.4159
    3.8834 	   25.5840 	    1.0000 	   33.0000 	   18.2920
    4.0970 	   26.0755 	    1.0000 	   33.0000 	   20.2581
    4.1733 	   26.5835 	    1.0000 	   33.0000 	   22.2902
    4.0665 	   27.0733 	    1.0000 	   33.0000 	   24.2493
    4.3565 	   27.5910 	    1.0000 	   33.0000 	   26.3205
    4.5701 	   28.0808 	    1.0000 	   33.0000 	   28.2796
    4.8600 	   28.5798 	    1.0000 	   33.0000 	   30.2757
    4.7684 	   29.0688 	    1.0000 	   33.0000 	   32.2318
    5.0126 	   29.5568 	    1.0000 	   33.0000 	   34.1819
    5.0278 	   30.0563 	    1.0000 	   33.0000 	   36.1810
    4.9058 	   30.5573 	    1.0000 	   33.0000 	   38.1851
    5.2415 	   31.0795 	    1.0000 	   33.0000 	   40.2743
    5.4704 	   31.5978 	    1.0000 	   33.0000 	   42.3474
    5.6535 	   32.1028 	    1.0000 	   33.0000 	   44.3675
    5.7908 	   32.6235 	    1.0000 	   33.0000 	   46.4506
    6.1570 	   33.1493 	    1.0000 	   33.0000 	   48.5537
    6.1265 	   33.6455 	    1.0000 	   33.0000 	   50.5388
    6.1723 	   34.1555 	    1.0000 	   33.0000 	   52.5780
    6.4927 	   34.6933 	    1.0000 	   33.0000 	   54.7291
    6.6758 	   35.2160 	    1.0000 	   33.0000 	   56.8202
    6.8284 	   35.7388 	    1.0000 	   33.0000 	   58.9113
    7.0726 	   36.2598 	    1.0000 	   34.0000 	    0.9954
    7.3320 	   36.7708 	    1.0000 	   34.0000 	    3.0396
    7.5761 	   37.2810 	    1.0000 	   34.0000 	    5.0807
    7.7287 	   37.8040 	    1.0000 	   34.0000 	    7.1728
    7.9271 	   38.3170 	    1.0000 	   34.0000 	    9.2239
    8.2628 	   38.8335 	    1.0000 	   34.0000 	   11.2900
    7.4540 	   39.3558 	    1.0000 	   34.0000 	   13.3791
    7.7592 	   39.8763 	    1.0000 	   34.0000 	   15.4613
    7.6982 	   40.4073 	    1.0000 	   34.0000 	   17.5854
    7.5456 	   40.9615 	    1.0000 	   34.0000 	   19.8025
    7.6524 	   41.4963 	    1.0000 	   34.0000 	   21.9416
    7.5914 	   42.0480 	    1.0000 	   34.0000 	   24.1488
    7.4845 	   42.6090 	    1.0000 	   34.0000 	   26.3919
    7.3167 	   43.1685 	    1.0000 	   34.0000 	   28.6300
    7.4083 	   43.7348 	    1.0000 	   34.0000 	   30.8951
    7.3167 	   44.2953 	    1.0000 	   34.0000 	   33.1373
    7.3930 	   44.8635 	    1.0000 	   34.0000 	   35.4104
    7.2099 	   45.4200 	    1.0000 	   34.0000 	   37.6365
    7.1794 	   45.9753 	    1.0000 	   34.0000 	   39.8577
    7.2404 	   46.5353 	    1.0000 	   34.0000 	   42.0978
    7.1489 	   47.1098 	    1.0000 	   34.0000 	   44.3949
    7.2251 	   47.6845 	    1.0000 	   34.0000 	   46.6940
    6.7216 	   48.2608 	    1.0000 	   34.0000 	   48.9992
    7.1183 	   48.8458 	    1.0000 	   34.0000 	   51.3393
    7.1794 	   49.4238 	    1.0000 	   34.0000 	   53.6514
    6.9963 	   49.9990 	    1.0000 	   34.0000 	   55.9526
    6.9810 	   50.5928 	    1.0000 	   34.0000 	   58.3277
    7.1183 	   51.1945 	    1.0000 	   35.0000 	    0.7349
    6.9963 	   51.7953 	    1.0000 	   35.0000 	    3.1370
    6.8742 	   52.3978 	    1.0000 	   35.0000 	    5.5471
    6.9810 	   53.0193 	    1.0000 	   35.0000 	    8.0333
    6.9047 	   53.6418 	    1.0000 	   35.0000 	   10.5234
    6.9810 	   54.2703 	    1.0000 	   35.0000 	   13.0376
    6.5232 	   54.9005 	    1.0000 	   35.0000 	   15.5587
    6.5537 	   55.5263 	    1.0000 	   35.0000 	   18.0618
    5.7908 	   56.1530 	    1.0000 	   35.0000 	   20.5680
    5.3788 	   56.7705 	    1.0000 	   35.0000 	   23.0381
    5.1499 	   57.4010 	    1.0000 	   35.0000 	   25.5603
    4.7227 	   58.0243 	    1.0000 	   35.0000 	   28.0534
    4.4633 	   58.6545 	    1.0000 	   35.0000 	   30.5746
    4.1581 	   59.2870 	    1.0000 	   35.0000 	   33.1047
    4.0208 	   59.8930 	    1.0000 	   35.0000 	   35.5288
    3.7156 	   60.4963 	    1.0000 	   35.0000 	   37.9410
    3.5477 	   61.1043 	    1.0000 	   35.0000 	   40.3731
    3.2120 	   61.7173 	    1.0000 	   35.0000 	   42.8253
    3.2273 	   62.3405 	    1.0000 	   35.0000 	   45.3184
    2.9984 	   62.9628 	    1.0000 	   35.0000 	   47.8075
    2.8458 	   63.5783 	    1.0000 	   35.0000 	   50.2697
    2.7543 	   64.2333 	    1.0000 	   35.0000 	   52.8898
    2.5711 	   64.8555 	    1.0000 	   35.0000 	   55.3780
    2.5559 	   65.4977 	    1.0000 	   35.0000 	   57.9471
    2.5101 	   66.1675 	    1.0000 	   36.0000 	    0.6263
    2.2202 	   66.8370 	    1.0000 	   36.0000 	    3.3044
    2.0829 	   67.5128 	    1.0000 	   36.0000 	    6.0076
    2.0829 	   68.1738 	    1.0000 	   36.0000 	    8.6517
    1.9760 	   68.8558 	    1.0000 	   36.0000 	   11.3789
    1.6556 	   69.5288 	    1.0000 	   36.0000 	   14.0710
    1.7014 	   70.2008 	    1.0000 	   36.0000 	   16.7592
    1.5793 	   70.8810 	    1.0000 	   36.0000 	   19.4804
    1.7166 	   71.5648 	    1.0000 	   36.0000 	   22.2155
    1.5183 	   72.2493 	    1.0000 	   36.0000 	   24.9537
    1.5335 	   72.9240 	    1.0000 	   36.0000 	   27.6528
    1.1673 	   73.6083 	    1.0000 	   36.0000 	   30.3890
    1.2589 	   74.3018 	    1.0000 	   36.0000 	   33.1631
    1.1215 	   75.0065 	    1.0000 	   36.0000 	   35.9823
    0.9537 	   75.7075 	    1.0000 	   36.0000 	   38.7865
    0.8621 	   76.4005 	    1.0000 	   36.0000 	   41.5586
    0.7706 	   77.1135 	    1.0000 	   36.0000 	   44.4108
    0.7858 	   77.8180 	    1.0000 	   36.0000 	   47.2279
    0.6485 	   78.5180 	    1.0000 	   36.0000 	   50.0281
    0.5570 	   79.2190 	    1.0000 	   36.0000 	   52.8323
    0.3586 	   79.9280 	    1.0000 	   36.0000 	   55.6684
    0.2976 	   80.6453 	    1.0000 	   36.0000 	   58.5376
    0.2823 	   81.3708 	    1.0000 	   37.0000 	    1.4398
    0.1907 	   82.0835 	    1.0000 	   37.0000 	    4.2899
    0.0076 	   82.8010 	    1.0000 	   37.0000 	    7.1601
    0.0229 	   83.5325 	    1.0000 	   37.0000 	   10.0863
    0.2365 	   84.2558 	    1.0000 	   37.0000 	   12.9794
    0.0534 	   84.9900 	    1.0000 	   37.0000 	   15.9166
    0.0687 	   85.7283 	    1.0000 	   37.0000 	   18.8698
    0.1297 	   86.4533 	    1.0000 	   37.0000 	   21.7689
    0.2213 	   87.1905 	    1.0000 	   37.0000 	   24.7181
    0.0534 	   87.9253 	    1.0000 	   37.0000 	   27.6573
    0.1297 	   88.6538 	    1.0000 	   37.0000 	   30.5714
    0.1907 	   89.3920 	    1.0000 	   37.0000 	   33.5246
    0.1144 	   90.1473 	    1.0000 	   37.0000 	   36.5458
    0.2365 	   90.8990 	    1.0000 	   37.0000 	   39.5519
    0.1755 	   91.6445 	    1.0000 	   37.0000 	   42.5341
    0.2365 	   92.3893 	    1.0000 	   37.0000 	   45.5133
    0.0076 	   93.1455 	    1.0000 	   37.0000 	   48.5385
    0.0229 	   93.8865 	    1.0000 	   37.0000 	   51.5026
    0.0687 	   94.6358 	    1.0000 	   37.0000 	   54.4998
    0.0534 	   94.8920 	    1.0000 	   37.0000 	   55.5248