File: instron/10_grey_1W15L_drag40_spd15_nonstop.txt
Thayer School of Engineering        Instron 4442 Mechanical Testing System
6/28/2018 3:14:42 AM

  Force (N)	Extension (mm)	Not Used	Not Used	Not Used	     Hour	    Minute	    Second
    0.1297 	    0.2543 	    3.0000 	   15.0000 	    1.9641
    0.1907 	    0.6963 	    3.0000 	   15.0000 	    3.7322
    0.1144 	    1.0113 	    3.0000 	   15.0000 	    4.9923
    0.2670 	    1.2803 	    3.0000 	   15.0000 	    6.0683
    0.1907 	    1.5423 	    3.0000 	   15.0000 	    7.1154
    0.0534 	    1.8178 	    3.0000 	   15.0000 	    8.2175
    0.0839 	    2.0765 	    3.0000 	   15.0000 	    9.2525
    0.1450 	    2.3265 	    3.0000 	   15.0000 	   10.2526
    0.1755 	    2.5743 	    3.0000 	   15.0000 	   11.2436
    0.0992 	    2.8413 	    3.0000 	   15.0000 	   12.3117
    0.2518 	    3.1140 	    3.0000 	   15.0000 	   13.4028
    0.1907 	    3.3875 	    3.0000 	   15.0000 	   14.4968
    0.2823 	    3.6593 	    3.0000 	   15.0000 	   15.5839
    0.4654 	    3.9240 	    3.0000 	   15.0000 	   16.6429
    0.2670 	    4.1985 	    3.0000 	   15.0000 	   17.7410
    0.2060 	    4.4755 	    3.0000 	   15.0000 	   18.8491
    0.2518 	    4.7553 	    3.0000 	   15.0000 	   19.9681
    0.2823 	    5.0425 	    3.0000 	   15.0000 	   21.1172
    0.4044 	    5.3293 	    3.0000 	   15.0000 	   22.2643
    0.3433 	    5.6133 	    3.0000 	   15.0000 	   23.4003
    0.4959 	    5.8993 	    3.0000 	   15.0000 	   24.5434
    0.6485 	    6.1873 	    3.0000 	   15.0000 	   25.6955
    0.6485 	    6.4815 	    3.0000 	   15.0000 	   26.8725
    0.5112 	    6.7703 	    3.0000 	   15.0000 	   28.0276
    0.6638 	    7.0443 	    3.0000 	   15.0000 	   29.1237
    0.6332 	    7.3355 	    3.0000 	   15.0000 	   30.2887
    0.7401 	    7.6258 	    3.0000 	   15.0000 	   31.4498
    0.6943 	    7.9130 	    3.0000 	   15.0000 	   32.5989
    0.6943 	    8.2073 	    3.0000 	   15.0000 	   33.7759
    0.8469 	    8.5052 	    3.0000 	   15.0000 	   34.9680
    0.8011 	    8.7900 	    3.0000 	   15.0000 	   36.1071
    0.8774 	    9.1048 	    3.0000 	   15.0000 	   37.3661
    0.9689 	    9.3965 	    3.0000 	   15.0000 	   38.5332
    0.8927 	    9.7063 	    3.0000 	   15.0000 	   39.7723
    0.9232 	   10.0005 	    3.0000 	   15.0000 	   40.9493
    0.8621 	   10.3000 	    3.0000 	   15.0000 	   42.1464
    1.0605 	   10.6118 	    3.0000 	   15.0000 	   43.3935
    1.0452 	   10.9103 	    3.0000 	   15.0000 	   44.5875
    0.7706 	   11.2043 	    3.0000 	   15.0000 	   45.7636
    1.2741 	   11.5075 	    3.0000 	   15.0000 	   46.9767
    1.1063 	   11.8258 	    3.0000 	   15.0000 	   48.2498
    1.1673 	   12.1413 	    3.0000 	   15.0000 	   49.5118
    1.1215 	   12.4580 	    3.0000 	   15.0000 	   50.7789
    1.2436 	   12.7703 	    3.0000 	   15.0000 	   52.0280
    1.1826 	   13.0853 	    3.0000 	   15.0000 	   53.2880
    1.2131 	   13.4008 	    3.0000 	   15.0000 	   54.5501
    0.9995 	   13.7175 	    3.0000 	   15.0000 	   55.8172
    1.4420 	   14.0358 	    3.0000 	   15.0000 	   57.0903
    1.4267 	   14.3570 	    3.0000 	   15.0000 	   58.3753
    1.4420 	   14.6798 	    3.0000 	   15.0000 	   59.6654
    1.4878 	   15.0070 	    3.0000 	   16.0000 	    0.9745
    1.5793 	   15.3330 	    3.0000 	   16.0000 	    2.2786
    1.5030 	   15.6655 	    3.0000 	   16.0000 	    3.6086
    1.4878 	   15.9983 	    3.0000 	   16.0000 	    4.9397
    1.3809 	   16.3238 	    3.0000 	   16.0000 	    6.2418
    1.5946 	   16.6548 	    3.0000 	   16.0000 	    7.5659
    1.7319 	   16.9893 	    3.0000 	   16.0000 	    8.9039
    1.5640 	   17.3240 	    3.0000 	   16.0000 	   10.2430
    1.7166 	   17.6580 	    3.0000 	   16.0000 	   11.5791
    1.7777 	   17.9948 	    3.0000 	   16.0000 	   12.9262
    1.6251 	   18.3345 	    3.0000 	   16.0000 	   14.2852
    1.7166 	   18.6783 	    3.0000 	   16.0000 	   15.6603
    1.7624 	   19.0195 	    3.0000 	   16.0000 	   17.0244
    1.7472 	   19.3615 	    3.0000 	   16.0000 	   18.3925
    1.7014 	   19.7120 	    3.0000 	   16.0000 	   19.7946
    1.8235 	   20.0510 	    3.0000 	   16.0000 	   21.1506
    1.9303 	   20.3975 	    3.0000 	   16.0000 	   22.5367
    1.9455 	   20.7503 	    3.0000 	   16.0000 	   23.9478
    2.0829 	   21.0965 	    3.0000 	   16.0000 	   25.3329
    2.1286 	   21.4493 	    3.0000 	   16.0000 	   26.7440
    2.0371 	   21.7980 	    3.0000 	   16.0000 	   28.1380
    2.1897 	   22.1513 	    3.0000 	   16.0000 	   29.5521
    2.0829 	   22.5070 	    3.0000 	   16.0000 	   30.9752
    2.1897 	   22.8633 	    3.0000 	   16.0000 	   32.4003
    2.2354 	   23.2270 	    3.0000 	   16.0000 	   33.8554
    1.9913 	   23.5838 	    3.0000 	   16.0000 	   35.2814
    2.1897 	   23.9525 	    3.0000 	   16.0000 	   36.7565
    2.3423 	   24.3158 	    3.0000 	   16.0000 	   38.2096
    2.3575 	   24.6773 	    3.0000 	   16.0000 	   39.6557
    2.4338 	   25.0420 	    3.0000 	   16.0000 	   41.1148
    2.5559 	   25.4075 	    3.0000 	   16.0000 	   42.5769
    2.1439 	   25.7760 	    3.0000 	   16.0000 	   44.0509
    2.5101 	   26.1448 	    3.0000 	   16.0000 	   45.5260
    2.5711 	   26.5180 	    3.0000 	   16.0000 	   47.0191
    2.6322 	   26.8903 	    3.0000 	   16.0000 	   48.5082
    2.6169 	   27.2628 	    3.0000 	   16.0000 	   49.9983
    2.7390 	   27.6345 	    3.0000 	   16.0000 	   51.4844
    2.8000 	   28.0125 	    3.0000 	   16.0000 	   52.9965
    2.7695 	   28.3900 	    3.0000 	   16.0000 	   54.5065
    2.7543 	   28.7735 	    3.0000 	   16.0000 	   56.0406
    2.8763 	   29.1548 	    3.0000 	   16.0000 	   57.5657
    2.9068 	   29.5380 	    3.0000 	   16.0000 	   59.0988
    2.9526 	   29.9190 	    3.0000 	   17.0000 	    0.6229
    3.0900 	   30.3018 	    3.0000 	   17.0000 	    2.1540
    3.0442 	   30.6785 	    3.0000 	   17.0000 	    3.6611
    3.1510 	   31.0663 	    3.0000 	   17.0000 	    5.2122
    3.0137 	   31.4538 	    3.0000 	   17.0000 	    6.7622
    2.7543 	   31.8378 	    3.0000 	   17.0000 	    8.2983
    2.5406 	   32.2388 	    3.0000 	   17.0000 	    9.9004
    2.5559 	   32.6275 	    3.0000 	   17.0000 	   11.4565
    2.4186 	   33.0195 	    3.0000 	   17.0000 	   13.0246
    2.3117 	   33.4005 	    3.0000 	   17.0000 	   14.5487
    2.3423 	   33.7938 	    3.0000 	   17.0000 	   16.1218
    2.2965 	   34.1883 	    3.0000 	   17.0000 	   17.6999
    2.1592 	   34.5930 	    3.0000 	   17.0000 	   19.3190
    2.1439 	   34.9950 	    3.0000 	   17.0000 	   20.9271
    1.9913 	   35.3965 	    3.0000 	   17.0000 	   22.5331
    1.8387 	   35.8020 	    3.0000 	   17.0000 	   24.1552
    2.0218 	   36.2093 	    3.0000 	   17.0000 	   25.7843
    1.9455 	   36.6215 	    3.0000 	   17.0000 	   27.4324
    1.7472 	   37.0295 	    3.0000 	   17.0000 	   29.0645
    1.7777 	   37.4338 	    3.0000 	   17.0000 	   30.6816
    1.8845 	   37.8403 	    3.0000 	   17.0000 	   32.3077
    1.6556 	   38.2545 	    3.0000 	   17.0000 	   33.9648
    1.6403 	   38.6630 	    3.0000 	   17.0000 	   35.5989
    1.5793 	   39.0768 	    3.0000 	   17.0000 	   37.2540
    1.4725 	   39.4923 	    3.0000 	   17.0000 	   38.9161
    1.5488 	   39.9053 	    3.0000 	   17.0000 	   40.5682
    1.5488 	   40.3255 	    3.0000 	   17.0000 	   42.2493
    1.3962 	   40.7390 	    3.0000 	   17.0000 	   43.9024
    1.3504 	   41.1390 	    3.0000 	   17.0000 	   45.5025
    1.2894 	   41.5508 	    3.0000 	   17.0000 	   47.1496
    1.4572 	   41.9583 	    3.0000 	   17.0000 	   48.7796
    1.2284 	   42.3725 	    3.0000 	   17.0000 	   50.4367
    1.3809 	   42.7855 	    3.0000 	   17.0000 	   52.0888
    1.1521 	   43.1953 	    3.0000 	   17.0000 	   53.7279
    1.1673 	   43.6108 	    3.0000 	   17.0000 	   55.3900
    1.1368 	   44.0285 	    3.0000 	   17.0000 	   57.0611
    1.1215 	   44.4465 	    3.0000 	   17.0000 	   58.7332
    1.1826 	   44.8575 	    3.0000 	   18.0000 	    0.3773
    0.8469 	   45.2900 	    3.0000 	   18.0000 	    2.1064
    0.8774 	   45.7038 	    3.0000 	   18.0000 	    3.7605
    0.9689 	   46.1205 	    3.0000 	   18.0000 	    5.4286
    1.0147 	   46.5528 	    3.0000 	   18.0000 	    7.1577
    0.9842 	   46.9790 	    3.0000 	   18.0000 	    8.8628
    0.9689 	   47.4048 	    3.0000 	   18.0000 	   10.5659
    0.8621 	   47.8233 	    3.0000 	   18.0000 	   12.2400
    0.9232 	   48.2565 	    3.0000 	   18.0000 	   13.9731
    0.9537 	   48.6925 	    3.0000 	   18.0000 	   15.7172
    0.7401 	   49.1290 	    3.0000 	   18.0000 	   17.4633
    0.6790 	   49.5560 	    3.0000 	   18.0000 	   19.1704
    0.6790 	   49.9945 	    3.0000 	   18.0000 	   20.9245
    0.6943 	   50.4275 	    3.0000 	   18.0000 	   22.6566
    0.6638 	   50.8823 	    3.0000 	   18.0000 	   24.4757
    0.3891 	   51.3438 	    3.0000 	   18.0000 	   26.3218
    0.6790 	   51.8050 	    3.0000 	   18.0000 	   28.1669
    0.7401 	   52.2683 	    3.0000 	   18.0000 	   30.0200
    0.6180 	   52.7430 	    3.0000 	   18.0000 	   31.9191
    0.4044 	   53.2073 	    3.0000 	   18.0000 	   33.7762
    0.4349 	   53.6755 	    3.0000 	   18.0000 	   35.6493
    0.2976 	   54.1510 	    3.0000 	   18.0000 	   37.5504
    0.3586 	   54.6185 	    3.0000 	   18.0000 	   39.4205
    0.2213 	   55.0958 	    3.0000 	   18.0000 	   41.3297
    0.2518 	   55.5653 	    3.0000 	   18.0000 	   43.2078
    0.1907 	   56.0398 	    3.0000 	   18.0000 	   45.1059
    0.1144 	   56.5188 	    3.0000 	   18.0000 	   47.0220
    0.1907 	   56.9933 	    3.0000 	   18.0000 	   48.9201
    0.2518 	   57.4733 	    3.0000 	   18.0000 	   50.8402
    0.1602 	   57.9565 	    3.0000 	   18.0000 	   52.7733
    0.0076 	   58.4375 	    3.0000 	   18.0000 	   54.6964
    0.2670 	   58.9248 	    3.0000 	   18.0000 	   56.6455
    0.1602 	   59.4085 	    3.0000 	   18.0000 	   58.5806
    0.1144 	   59.9015 	    3.0000 	   19.0000 	    0.5527
    0.0534 	   60.3893 	    3.0000 	   19.0000 	    2.5039
    0.1297 	   60.8808 	    3.0000 	   19.0000 	    4.4700
    0.1755 	   61.3760 	    3.0000 	   19.0000 	    6.4511
    0.0381 	   61.8735 	    3.0000 	   19.0000 	    8.4412
    0.1450 	   62.3263 	    3.0000 	   19.0000 	   10.2523