File: instron/10_grey_3W15L_drag40_spd30.txt
Thayer School of Engineering        Instron 4442 Mechanical Testing System
6/28/2018 1:15:04 AM

  Force (N)	Extension (mm)	Not Used	Not Used	Not Used	     Hour	    Minute	    Second
    0.1144 	    0.5115 	    1.0000 	   15.0000 	   15.6221
   -0.0381 	    1.3595 	    1.0000 	   15.0000 	   17.3182
    0.2060 	    2.0455 	    1.0000 	   15.0000 	   18.6902
    0.1602 	    2.5910 	    1.0000 	   15.0000 	   19.7813
    0.2823 	    3.1140 	    1.0000 	   15.0000 	   20.8274
    0.2976 	    3.6300 	    1.0000 	   15.0000 	   21.8594
    0.0839 	    4.1565 	    1.0000 	   15.0000 	   22.9125
    0.1602 	    4.6685 	    1.0000 	   15.0000 	   23.9365
    0.2060 	    5.1940 	    1.0000 	   15.0000 	   24.9876
    0.1297 	    5.7430 	    1.0000 	   15.0000 	   26.0857
    0.0534 	    6.2565 	    1.0000 	   15.0000 	   27.1127
    0.1907 	    6.7955 	    1.0000 	   15.0000 	   28.1888
    0.1907 	    7.3535 	    1.0000 	   15.0000 	   29.3059
    0.1144 	    7.8970 	    1.0000 	   15.0000 	   30.3929
    0.2976 	    8.4655 	    1.0000 	   15.0000 	   31.5300
    0.2823 	    9.0135 	    1.0000 	   15.0000 	   32.6260
    0.5264 	    9.5920 	    1.0000 	   15.0000 	   33.7831
    0.7706 	   10.1750 	    1.0000 	   15.0000 	   34.9492
    0.7706 	   10.7450 	    1.0000 	   15.0000 	   36.0892
    0.8927 	   11.3085 	    1.0000 	   15.0000 	   37.2163
    1.0758 	   11.8780 	    1.0000 	   15.0000 	   38.3554
    1.2131 	   12.4395 	    1.0000 	   15.0000 	   39.4784
    1.3046 	   13.0195 	    1.0000 	   15.0000 	   40.6385
    1.4572 	   13.6065 	    1.0000 	   15.0000 	   41.8126
    1.3352 	   14.2090 	    1.0000 	   15.0000 	   43.0176
    1.6556 	   14.8185 	    1.0000 	   15.0000 	   44.2367
    1.7929 	   15.4030 	    1.0000 	   15.0000 	   45.4048
    1.9760 	   15.9945 	    1.0000 	   15.0000 	   46.5878
    2.0066 	   16.5925 	    1.0000 	   15.0000 	   47.7839
    2.0371 	   17.1875 	    1.0000 	   15.0000 	   48.9740
    2.1592 	   17.7775 	    1.0000 	   15.0000 	   50.1540
    2.2354 	   18.3870 	    1.0000 	   15.0000 	   51.3731
    2.4338 	   18.9865 	    1.0000 	   15.0000 	   52.5722
    2.3423 	   19.5930 	    1.0000 	   15.0000 	   53.7853
    2.2812 	   20.2025 	    1.0000 	   15.0000 	   55.0043
    2.7848 	   20.8150 	    1.0000 	   15.0000 	   56.2294
    2.3728 	   21.4255 	    1.0000 	   15.0000 	   57.4505
    2.9374 	   22.0435 	    1.0000 	   15.0000 	   58.6865
    2.9831 	   22.6480 	    1.0000 	   15.0000 	   59.8956
    3.0137 	   23.2700 	    1.0000 	   16.0000 	    1.1397
    3.2273 	   23.9005 	    1.0000 	   16.0000 	    2.3997
    3.2120 	   24.5240 	    1.0000 	   16.0000 	    3.6468
    3.5019 	   25.1185 	    1.0000 	   16.0000 	    4.8359
    3.4104 	   25.7445 	    1.0000 	   16.0000 	    6.0880
    3.5935 	   26.3445 	    1.0000 	   16.0000 	    7.2880
    3.6393 	   26.9145 	    1.0000 	   16.0000 	    8.4281
    3.6088 	   27.5210 	    1.0000 	   16.0000 	    9.6412
    3.8529 	   28.1430 	    1.0000 	   16.0000 	   10.8852
    3.8834 	   28.7765 	    1.0000 	   16.0000 	   12.1523
    4.0818 	   29.4015 	    1.0000 	   16.0000 	   13.4024
    4.1276 	   30.0250 	    1.0000 	   16.0000 	   14.6494
    4.3565 	   30.6395 	    1.0000 	   16.0000 	   15.8785
    4.2649 	   31.2760 	    1.0000 	   16.0000 	   17.1516
    4.5090 	   31.8865 	    1.0000 	   16.0000 	   18.3727
    4.7532 	   32.5025 	    1.0000 	   16.0000 	   19.6047
    4.7074 	   33.1605 	    1.0000 	   16.0000 	   20.9198
    4.7990 	   33.8175 	    1.0000 	   16.0000 	   22.2339
    4.7837 	   34.4510 	    1.0000 	   16.0000 	   23.5009
    5.1957 	   35.0920 	    1.0000 	   16.0000 	   24.7830
    5.1194 	   35.7420 	    1.0000 	   16.0000 	   26.0831
    5.2415 	   36.4005 	    1.0000 	   16.0000 	   27.4002
    5.3941 	   37.0700 	    1.0000 	   16.0000 	   28.7393
    5.8976 	   37.7190 	    1.0000 	   16.0000 	   30.0373
    5.8824 	   38.3935 	    1.0000 	   16.0000 	   31.3864
    5.9281 	   39.0420 	    1.0000 	   16.0000 	   32.6835
    6.0655 	   39.6995 	    1.0000 	   16.0000 	   33.9986
    5.8366 	   40.3445 	    1.0000 	   16.0000 	   35.2886
    6.1723 	   41.0085 	    1.0000 	   16.0000 	   36.6167
    6.0044 	   41.6245 	    1.0000 	   16.0000 	   37.8478
    5.8366 	   42.2565 	    1.0000 	   16.0000 	   39.1118
    5.9281 	   42.9115 	    1.0000 	   16.0000 	   40.4219
    5.8976 	   43.5495 	    1.0000 	   16.0000 	   41.6980
    5.8671 	   44.2140 	    1.0000 	   16.0000 	   43.0271
    5.7908 	   44.8850 	    1.0000 	   16.0000 	   44.3691
    5.9892 	   45.5470 	    1.0000 	   16.0000 	   45.6932
    5.5772 	   46.1735 	    1.0000 	   16.0000 	   46.9463
    5.7450 	   46.8295 	    1.0000 	   16.0000 	   48.2584
    5.6840 	   47.5190 	    1.0000 	   16.0000 	   49.6374
    5.5772 	   48.2275 	    1.0000 	   16.0000 	   51.0545
    5.7908 	   48.9355 	    1.0000 	   16.0000 	   52.4706
    5.7145 	   49.6025 	    1.0000 	   16.0000 	   53.8047
    5.6229 	   50.2625 	    1.0000 	   16.0000 	   55.1238
    5.7298 	   50.8985 	    1.0000 	   16.0000 	   56.3958
    5.6077 	   51.5425 	    1.0000 	   16.0000 	   57.6839
    5.7603 	   52.2335 	    1.0000 	   16.0000 	   59.0660
    5.5924 	   52.9355 	    1.0000 	   17.0000 	    0.4701
    5.5924 	   53.6345 	    1.0000 	   17.0000 	    1.8681
    5.5467 	   54.3400 	    1.0000 	   17.0000 	    3.2792
    5.5314 	   55.0210 	    1.0000 	   17.0000 	    4.6413
    5.5314 	   55.7425 	    1.0000 	   17.0000 	    6.0844
    5.6382 	   56.4185 	    1.0000 	   17.0000 	    7.4365
    5.4551 	   57.0970 	    1.0000 	   17.0000 	    8.7935
    5.5314 	   57.7795 	    1.0000 	   17.0000 	   10.1586
    5.5009 	   58.4480 	    1.0000 	   17.0000 	   11.4957
    5.6229 	   59.1325 	    1.0000 	   17.0000 	   12.8638
    5.5467 	   59.8390 	    1.0000 	   17.0000 	   14.2769
    5.6687 	   60.5720 	    1.0000 	   17.0000 	   15.7429
    5.4246 	   61.3110 	    1.0000 	   17.0000 	   17.2210
    5.4704 	   62.0485 	    1.0000 	   17.0000 	   18.6961
    5.5467 	   62.7850 	    1.0000 	   17.0000 	   20.1692
    5.4246 	   63.5315 	    1.0000 	   17.0000 	   21.6623
    5.4551 	   64.2815 	    1.0000 	   17.0000 	   23.1624
    5.5314 	   64.9840 	    1.0000 	   17.0000 	   24.5674
    5.4246 	   65.6875 	    1.0000 	   17.0000 	   25.9745
    5.5009 	   66.4175 	    1.0000 	   17.0000 	   27.4346
    5.4246 	   67.1300 	    1.0000 	   17.0000 	   28.8597
    5.4551 	   67.8425 	    1.0000 	   17.0000 	   30.2838
    5.4551 	   68.5980 	    1.0000 	   17.0000 	   31.7949
    5.5619 	   69.3430 	    1.0000 	   17.0000 	   33.2849
    5.5772 	   70.0800 	    1.0000 	   17.0000 	   34.7590
    5.5467 	   70.8590 	    1.0000 	   17.0000 	   36.3171
    5.4551 	   71.5700 	    1.0000 	   17.0000 	   37.7392
    5.2415 	   72.2795 	    1.0000 	   17.0000 	   39.1583
    4.7837 	   72.9895 	    1.0000 	   17.0000 	   40.5784
    4.5548 	   73.7215 	    1.0000 	   17.0000 	   42.0424
    4.1581 	   74.4485 	    1.0000 	   17.0000 	   43.4965
    4.0665 	   75.1575 	    1.0000 	   17.0000 	   44.9146
    4.0360 	   75.8705 	    1.0000 	   17.0000 	   46.3407
    3.7156 	   76.5920 	    1.0000 	   17.0000 	   47.7828
    3.5019 	   77.3165 	    1.0000 	   17.0000 	   49.2319
    3.1662 	   78.0780 	    1.0000 	   17.0000 	   50.7549
    3.0289 	   78.8265 	    1.0000 	   17.0000 	   52.2520
    2.8153 	   79.5795 	    1.0000 	   17.0000 	   53.7581
    2.7390 	   80.3570 	    1.0000 	   17.0000 	   55.3132
    2.8153 	   81.1005 	    1.0000 	   17.0000 	   56.8003
    2.4491 	   81.8530 	    1.0000 	   17.0000 	   58.3054
    2.6780 	   82.6175 	    1.0000 	   17.0000 	   59.8345
    2.4796 	   83.3845 	    1.0000 	   18.0000 	    1.3685
    2.3880 	   84.1450 	    1.0000 	   18.0000 	    2.8896
    2.2660 	   84.8970 	    1.0000 	   18.0000 	    4.3937
    2.3117 	   85.6585 	    1.0000 	   18.0000 	    5.9158
    1.9760 	   86.4195 	    1.0000 	   18.0000 	    7.4379
    1.9760 	   87.1925 	    1.0000 	   18.0000 	    8.9840
    1.8235 	   87.9715 	    1.0000 	   18.0000 	   10.5421
    1.8845 	   88.7690 	    1.0000 	   18.0000 	   12.1372
    1.7014 	   89.5555 	    1.0000 	   18.0000 	   13.7103
    1.6556 	   90.3530 	    1.0000 	   18.0000 	   15.3053
    1.2436 	   91.1480 	    1.0000 	   18.0000 	   16.8954
    1.4115 	   91.9490 	    1.0000 	   18.0000 	   18.4975
    0.9384 	   92.7505 	    1.0000 	   18.0000 	   20.1006
    1.3199 	   93.5560 	    1.0000 	   18.0000 	   21.7117
    1.0758 	   94.3505 	    1.0000 	   18.0000 	   23.2998
    0.8316 	   95.1430 	    1.0000 	   18.0000 	   24.8849
    0.6332 	   95.9485 	    1.0000 	   18.0000 	   26.4960
    0.6180 	   96.7415 	    1.0000 	   18.0000 	   28.0821
    0.4044 	   97.5380 	    1.0000 	   18.0000 	   29.6752
    0.3281 	   98.3595 	    1.0000 	   18.0000 	   31.3183
    0.2670 	   99.1820 	    1.0000 	   18.0000 	   32.9634
    0.0992 	  100.0185 	    1.0000 	   18.0000 	   34.6365
    0.1907 	  100.8415 	    1.0000 	   18.0000 	   36.2825
    0.1297 	  101.6670 	    1.0000 	   18.0000 	   37.9336
    0.0687 	  102.4895 	    1.0000 	   18.0000 	   39.5777
    0.1602 	  103.3205 	    1.0000 	   18.0000 	   41.2398
    0.1450 	  104.1750 	    1.0000 	   18.0000 	   42.9489
    0.0229 	  105.0010 	    1.0000 	   18.0000 	   44.6010
    0.1297 	  105.8250 	    1.0000 	   18.0000 	   46.2491
    0.1450 	  106.6650 	    1.0000 	   18.0000 	   47.9292
    0.1297 	  107.5050 	    1.0000 	   18.0000 	   49.6093
    0.1602 	  108.3455 	    1.0000 	   18.0000 	   51.2904
   -0.1907 	  109.1960 	    1.0000 	   18.0000 	   52.9915
    0.1297 	  110.0445 	    1.0000 	   18.0000 	   54.6886
    0.2213 	  110.9165 	    1.0000 	   18.0000 	   56.4327
    0.1450 	  111.7665 	    1.0000 	   18.0000 	   58.1318
   -0.0076 	  112.6120 	    1.0000 	   18.0000 	   59.8229
    0.0076 	  113.4635 	    1.0000 	   19.0000 	    1.5260
   -0.0687 	  114.3215 	    1.0000 	   19.0000 	    3.2421
   -0.0687 	  115.1830 	    1.0000 	   19.0000 	    4.9652
    0.0839 	  116.0520 	    1.0000 	   19.0000 	    6.7033
    0.1450 	  116.2065 	    1.0000 	   19.0000 	    7.0123