File: instron/10_grey_3W15L_drag30_spd15.txt
Thayer School of Engineering        Instron 4442 Mechanical Testing System
6/28/2018 1:20:37 AM

  Force (N)	Extension (mm)	Not Used	Not Used	Not Used	     Hour	    Minute	    Second
    0.1450 	    0.2558 	    1.0000 	   21.0000 	    3.5750
    0.1907 	    0.8393 	    1.0000 	   21.0000 	    5.9091
    0.2976 	    1.2543 	    1.0000 	   21.0000 	    7.5692
    0.2518 	    1.6475 	    1.0000 	   21.0000 	    9.1423
    0.3738 	    2.0465 	    1.0000 	   21.0000 	   10.7384
    0.4349 	    2.4408 	    1.0000 	   21.0000 	   12.3145
    0.4959 	    2.8475 	    1.0000 	   21.0000 	   13.9416
    0.5722 	    3.2448 	    1.0000 	   21.0000 	   15.5307
    0.8011 	    3.6453 	    1.0000 	   21.0000 	   17.1327
    0.8774 	    4.0470 	    1.0000 	   21.0000 	   18.7398
    0.8927 	    4.4565 	    1.0000 	   21.0000 	   20.3779
    0.9537 	    4.8715 	    1.0000 	   21.0000 	   22.0380
    0.9232 	    5.2820 	    1.0000 	   21.0000 	   23.6801
    1.3046 	    5.6925 	    1.0000 	   21.0000 	   25.3222
    1.4115 	    6.1093 	    1.0000 	   21.0000 	   26.9893
    1.3809 	    6.5263 	    1.0000 	   21.0000 	   28.6574
    1.5488 	    6.9433 	    1.0000 	   21.0000 	   30.3245
    1.5946 	    7.3538 	    1.0000 	   21.0000 	   31.9666
    1.8387 	    7.7795 	    1.0000 	   21.0000 	   33.6697
    1.6709 	    8.2118 	    1.0000 	   21.0000 	   35.3988
    1.8082 	    8.6458 	    1.0000 	   21.0000 	   37.1349
    1.9608 	    9.0808 	    1.0000 	   21.0000 	   38.8750
    2.0218 	    9.5218 	    1.0000 	   21.0000 	   40.6391
    2.1439 	    9.9535 	    1.0000 	   21.0000 	   42.3662
    2.0066 	   10.3895 	    1.0000 	   21.0000 	   44.1103
    2.0981 	   10.8320 	    1.0000 	   21.0000 	   45.8804
    2.2202 	   11.2848 	    1.0000 	   21.0000 	   47.6905
    2.1134 	   11.7360 	    1.0000 	   21.0000 	   49.4956
    2.1592 	   12.1860 	    1.0000 	   21.0000 	   51.2957
    2.3575 	   12.6010 	    1.0000 	   21.0000 	   52.9558
    2.3728 	   13.0415 	    1.0000 	   21.0000 	   54.7179
    2.5254 	   13.4878 	    1.0000 	   21.0000 	   56.5030
    2.6322 	   13.9378 	    1.0000 	   21.0000 	   58.3031
    2.6169 	   14.3950 	    1.0000 	   22.0000 	    0.1322
    2.9679 	   14.8560 	    1.0000 	   22.0000 	    1.9763
    2.6780 	   15.3235 	    1.0000 	   22.0000 	    3.8464
    2.8000 	   15.7740 	    1.0000 	   22.0000 	    5.6475
    2.8153 	   16.2465 	    1.0000 	   22.0000 	    7.5376
    3.1052 	   16.7198 	    1.0000 	   22.0000 	    9.4307
    3.0594 	   17.1888 	    1.0000 	   22.0000 	   11.3068
    3.1815 	   17.6643 	    1.0000 	   22.0000 	   13.2090
    3.1815 	   18.1185 	    1.0000 	   22.0000 	   15.0261
    3.2273 	   18.6028 	    1.0000 	   22.0000 	   16.9632
    3.2883 	   19.0770 	    1.0000 	   22.0000 	   18.8603
    3.4257 	   19.5698 	    1.0000 	   22.0000 	   20.8314
    3.4562 	   20.0533 	    1.0000 	   22.0000 	   22.7645
    3.5935 	   20.5478 	    1.0000 	   22.0000 	   24.7426
    3.4867 	   21.0420 	    1.0000 	   22.0000 	   26.7197
    3.8376 	   21.5478 	    1.0000 	   22.0000 	   28.7428
    3.9445 	   22.0360 	    1.0000 	   22.0000 	   30.6960
    3.9292 	   22.5200 	    1.0000 	   22.0000 	   32.6321
    4.1428 	   23.0075 	    1.0000 	   22.0000 	   34.5822
    4.2039 	   23.4965 	    1.0000 	   22.0000 	   36.5383
    4.3107 	   23.9960 	    1.0000 	   22.0000 	   38.5364
    4.1886 	   24.5025 	    1.0000 	   22.0000 	   40.5615
    4.5090 	   24.9893 	    1.0000 	   22.0000 	   42.5086
    4.4938 	   25.5025 	    1.0000 	   22.0000 	   44.5617
    4.5853 	   26.0140 	    1.0000 	   22.0000 	   46.6079
    4.7074 	   26.5180 	    1.0000 	   22.0000 	   48.6240
    5.0584 	   27.0323 	    1.0000 	   22.0000 	   50.6811
    4.7227 	   27.5255 	    1.0000 	   22.0000 	   52.6542
    4.9668 	   28.0098 	    1.0000 	   22.0000 	   54.5913
    4.9210 	   28.5105 	    1.0000 	   22.0000 	   56.5944
    5.3025 	   29.0250 	    1.0000 	   22.0000 	   58.6516
    5.1499 	   29.5568 	    1.0000 	   23.0000 	    0.7787
    5.1041 	   30.0585 	    1.0000 	   23.0000 	    2.7858
    5.3178 	   30.5740 	    1.0000 	   23.0000 	    4.8479
    5.3635 	   31.1040 	    1.0000 	   23.0000 	    6.9680
    5.1957 	   31.6010 	    1.0000 	   23.0000 	    8.9561
    5.2110 	   32.1240 	    1.0000 	   23.0000 	   11.0483
    5.3483 	   32.6458 	    1.0000 	   23.0000 	   13.1354
    5.1652 	   33.1643 	    1.0000 	   23.0000 	   15.2085
    5.3025 	   33.6928 	    1.0000 	   23.0000 	   17.3226
    5.3178 	   34.2213 	    1.0000 	   23.0000 	   19.4367
    5.2110 	   34.7623 	    1.0000 	   23.0000 	   21.6009
    5.1804 	   35.2853 	    1.0000 	   23.0000 	   23.6930
    5.0431 	   35.8240 	    1.0000 	   23.0000 	   25.8481
    5.1194 	   36.3613 	    1.0000 	   23.0000 	   27.9972
    5.1499 	   36.8935 	    1.0000 	   23.0000 	   30.1264
    5.1041 	   37.4138 	    1.0000 	   23.0000 	   32.2065
    5.2262 	   37.9570 	    1.0000 	   23.0000 	   34.3796
    5.2873 	   38.5178 	    1.0000 	   23.0000 	   36.6227
    5.1957 	   39.0578 	    1.0000 	   23.0000 	   38.7828
    4.8753 	   39.6113 	    1.0000 	   23.0000 	   40.9970
    5.0889 	   40.1638 	    1.0000 	   23.0000 	   43.2071
    5.1041 	   40.7203 	    1.0000 	   23.0000 	   45.4332
    4.9821 	   41.2848 	    1.0000 	   23.0000 	   47.6914
    5.1499 	   41.8578 	    1.0000 	   23.0000 	   49.9825
    5.1041 	   42.4165 	    1.0000 	   23.0000 	   52.2176
    4.9058 	   42.9788 	    1.0000 	   23.0000 	   54.4657
    5.1499 	   43.5405 	    1.0000 	   23.0000 	   56.7139
    5.1194 	   44.1043 	    1.0000 	   23.0000 	   58.9690
    5.1499 	   44.6773 	    1.0000 	   24.0000 	    1.2611
    5.0431 	   45.2395 	    1.0000 	   24.0000 	    3.5103
    5.0278 	   45.8180 	    1.0000 	   24.0000 	    5.8244
    5.0736 	   46.4113 	    1.0000 	   24.0000 	    8.1965
    5.0889 	   46.9920 	    1.0000 	   24.0000 	   10.5197
    5.0126 	   47.5765 	    1.0000 	   24.0000 	   12.8578
    4.8905 	   48.1663 	    1.0000 	   24.0000 	   15.2169
    4.9973 	   48.7625 	    1.0000 	   24.0000 	   17.6021
    4.9973 	   49.3715 	    1.0000 	   24.0000 	   20.0382
    5.0278 	   49.9598 	    1.0000 	   24.0000 	   22.3913
    5.0278 	   50.5518 	    1.0000 	   24.0000 	   24.7585
    4.8905 	   51.1485 	    1.0000 	   24.0000 	   27.1456
    4.9363 	   51.7395 	    1.0000 	   24.0000 	   29.5097
    4.8753 	   52.3435 	    1.0000 	   24.0000 	   31.9259
    4.9363 	   52.9500 	    1.0000 	   24.0000 	   34.3520
    4.5701 	   53.5563 	    1.0000 	   24.0000 	   36.7772
    4.1733 	   54.1748 	    1.0000 	   24.0000 	   39.2513
    4.0513 	   54.7780 	    1.0000 	   24.0000 	   41.6644
    4.0055 	   55.3935 	    1.0000 	   24.0000 	   44.1256
    3.9292 	   56.0108 	    1.0000 	   24.0000 	   46.5947
    3.5630 	   56.6298 	    1.0000 	   24.0000 	   49.0709
    3.3646 	   57.2518 	    1.0000 	   24.0000 	   51.5590
    3.2120 	   57.8728 	    1.0000 	   24.0000 	   54.0432
    3.1357 	   58.5005 	    1.0000 	   24.0000 	   56.5543
    2.7695 	   59.1365 	    1.0000 	   24.0000 	   59.0984
    2.9831 	   59.7823 	    1.0000 	   25.0000 	    1.6806
    2.8000 	   60.4213 	    1.0000 	   25.0000 	    4.2367
    2.8305 	   61.0605 	    1.0000 	   25.0000 	    6.7939
    2.7085 	   61.7073 	    1.0000 	   25.0000 	    9.3810
    2.5559 	   62.3445 	    1.0000 	   25.0000 	   11.9302
    2.4948 	   62.9870 	    1.0000 	   25.0000 	   14.5003
    2.0676 	   63.6318 	    1.0000 	   25.0000 	   17.0785
    2.2049 	   64.2688 	    1.0000 	   25.0000 	   19.6266
    2.3423 	   64.9128 	    1.0000 	   25.0000 	   22.2028
    2.0523 	   65.5635 	    1.0000 	   25.0000 	   24.8059
    1.9150 	   66.2143 	    1.0000 	   25.0000 	   27.4091
    1.9608 	   66.8715 	    1.0000 	   25.0000 	   30.0382
    1.7472 	   67.5363 	    1.0000 	   25.0000 	   32.6974
    1.8082 	   68.1965 	    1.0000 	   25.0000 	   35.3375
    1.7777 	   68.8783 	    1.0000 	   25.0000 	   38.0647
    1.5183 	   69.5518 	    1.0000 	   25.0000 	   40.7588
    1.4878 	   70.2220 	    1.0000 	   25.0000 	   43.4400
    1.4420 	   70.8943 	    1.0000 	   25.0000 	   46.1291
    1.2589 	   71.5808 	    1.0000 	   25.0000 	   48.8753
    1.0910 	   72.2670 	    1.0000 	   25.0000 	   51.6204
    1.0605 	   72.9635 	    1.0000 	   25.0000 	   54.4056
    1.0147 	   73.6628 	    1.0000 	   25.0000 	   57.2028
    0.8316 	   74.3645 	    1.0000 	   26.0000 	    0.0099
    0.7095 	   75.0660 	    1.0000 	   26.0000 	    2.8161
    0.5264 	   75.7710 	    1.0000 	   26.0000 	    5.6362
    0.4349 	   76.4775 	    1.0000 	   26.0000 	    8.4624
    0.4196 	   77.1855 	    1.0000 	   26.0000 	   11.2936
    0.2365 	   77.9183 	    1.0000 	   26.0000 	   14.2247
    0.1450 	   78.6105 	    1.0000 	   26.0000 	   16.9939
    0.2060 	   79.2958 	    1.0000 	   26.0000 	   19.7351
    0.1602 	   79.9850 	    1.0000 	   26.0000 	   22.4922
    0.1297 	   80.6700 	    1.0000 	   26.0000 	   25.2324
   -0.2670 	   81.3598 	    1.0000 	   26.0000 	   27.9905
    0.1602 	   82.0503 	    1.0000 	   26.0000 	   30.7527
    0.0076 	   82.7680 	    1.0000 	   26.0000 	   33.6238
    0.0076 	   83.4945 	    1.0000 	   26.0000 	   36.5300
    0.1144 	   84.2158 	    1.0000 	   26.0000 	   39.4152
    0.1144 	   84.9368 	    1.0000 	   26.0000 	   42.2993
    0.0076 	   85.6720 	    1.0000 	   26.0000 	   45.2395
    0.0839 	   86.4013 	    1.0000 	   26.0000 	   48.1567
   -0.0687 	   87.1415 	    1.0000 	   26.0000 	   51.1178
    0.1297 	   87.8715 	    1.0000 	   26.0000 	   54.0380
    0.0839 	   88.6090 	    1.0000 	   26.0000 	   56.9882
    0.0839 	   89.3713 	    1.0000 	   27.0000 	    0.0374
    0.2213 	   90.0993 	    1.0000 	   27.0000 	    2.9485
    0.1755 	   90.8463 	    1.0000 	   27.0000 	    5.9367
    0.0381 	   91.5880 	    1.0000 	   27.0000 	    8.9039
    0.0992 	   92.3400 	    1.0000 	   27.0000 	   11.9120
    0.0992 	   93.0900 	    1.0000 	   27.0000 	   14.9122
    0.0839 	   93.8380 	    1.0000 	   27.0000 	   17.9044
    0.1297 	   94.0868 	    1.0000 	   27.0000 	   18.8994