File: instron/blue_3cmW15cmL_drag40_sep15.txt
Thayer School of Engineering        Instron 4442 Mechanical Testing System
6/27/2018 10:52:43 PM

  Force (N)	Extension (mm)	Not Used	Not Used	Not Used	     Hour	    Minute	    Second
   -0.0534 	    0.2563 	   22.0000 	   53.0000 	   54.0790
    0.0076 	    0.8545 	   22.0000 	   53.0000 	   56.4721
   -0.0992 	    1.2725 	   22.0000 	   53.0000 	   58.1442
   -0.1602 	    1.6663 	   22.0000 	   53.0000 	   59.7193
    0.1755 	    2.0610 	   22.0000 	   54.0000 	    1.2984
    0.2670 	    2.4508 	   22.0000 	   54.0000 	    2.8565
    0.1450 	    2.8455 	   22.0000 	   54.0000 	    4.4355
    0.4501 	    3.2463 	   22.0000 	   54.0000 	    6.0386
    0.5722 	    3.6503 	   22.0000 	   54.0000 	    7.6547
    0.4959 	    4.0550 	   22.0000 	   54.0000 	    9.2738
    0.8164 	    4.4633 	   22.0000 	   54.0000 	   10.9069
    0.8469 	    4.8730 	   22.0000 	   54.0000 	   12.5460
    0.9384 	    5.2845 	   22.0000 	   54.0000 	   14.1921
    1.2284 	    5.6958 	   22.0000 	   54.0000 	   15.8372
    1.3046 	    6.1185 	   22.0000 	   54.0000 	   17.5283
    1.2741 	    6.5325 	   22.0000 	   54.0000 	   19.1844
    1.4725 	    6.9493 	   22.0000 	   54.0000 	   20.8505
    1.5183 	    7.3735 	   22.0000 	   54.0000 	   22.5476
    1.6861 	    7.8068 	   22.0000 	   54.0000 	   24.2807
    1.6709 	    8.2473 	   22.0000 	   54.0000 	   26.0428
    1.7166 	    8.6805 	   22.0000 	   54.0000 	   27.7759
    1.9303 	    9.1135 	   22.0000 	   54.0000 	   29.5080
    1.9150 	    9.5500 	   22.0000 	   54.0000 	   31.2541
    2.0371 	    9.9860 	   22.0000 	   54.0000 	   32.9982
    2.1744 	   10.4295 	   22.0000 	   54.0000 	   34.7723
    2.1744 	   10.8663 	   22.0000 	   54.0000 	   36.5194
    2.1744 	   11.3110 	   22.0000 	   54.0000 	   38.2975
    2.2965 	   11.7555 	   22.0000 	   54.0000 	   40.0756
    2.5406 	   12.1865 	   22.0000 	   54.0000 	   41.7997
    2.4948 	   12.6030 	   22.0000 	   54.0000 	   43.4658
    2.6627 	   13.0575 	   22.0000 	   54.0000 	   45.2839
    2.3423 	   13.4970 	   22.0000 	   54.0000 	   47.0420
    2.7237 	   13.9318 	   22.0000 	   54.0000 	   48.7811
    3.0137 	   14.3945 	   22.0000 	   54.0000 	   50.6322
    2.9221 	   14.8363 	   22.0000 	   54.0000 	   52.3993
    2.9374 	   15.2920 	   22.0000 	   54.0000 	   54.2224
    3.1357 	   15.7293 	   22.0000 	   54.0000 	   55.9705
    3.1357 	   16.1807 	   22.0000 	   54.0000 	   57.7766
    3.2731 	   16.6513 	   22.0000 	   54.0000 	   59.6587
    3.3799 	   17.1175 	   22.0000 	   55.0000 	    1.5238
    3.4867 	   17.5950 	   22.0000 	   55.0000 	    3.4339
    3.6088 	   18.0633 	   22.0000 	   55.0000 	    5.3070
    3.5935 	   18.5283 	   22.0000 	   55.0000 	    7.1671
    3.8987 	   19.0105 	   22.0000 	   55.0000 	    9.0962
    3.6393 	   19.4780 	   22.0000 	   55.0000 	   10.9663
    3.8682 	   19.9635 	   22.0000 	   55.0000 	   12.9075
    4.1428 	   20.4508 	   22.0000 	   55.0000 	   14.8566
    4.1123 	   20.9278 	   22.0000 	   55.0000 	   16.7647
    4.2802 	   21.3868 	   22.0000 	   55.0000 	   18.6008
    4.4633 	   21.8683 	   22.0000 	   55.0000 	   20.5269
    4.5853 	   22.3428 	   22.0000 	   55.0000 	   22.4250
    4.7837 	   22.8500 	   22.0000 	   55.0000 	   24.4541
    4.7074 	   23.3073 	   22.0000 	   55.0000 	   26.2832
    5.1194 	   23.7993 	   22.0000 	   55.0000 	   28.2513
    5.1499 	   24.3008 	   22.0000 	   55.0000 	   30.2565
    5.0584 	   24.7770 	   22.0000 	   55.0000 	   32.1616
    5.3178 	   25.2623 	   22.0000 	   55.0000 	   34.1027
    5.5314 	   25.7478 	   22.0000 	   55.0000 	   36.0448
    5.6077 	   26.2370 	   22.0000 	   55.0000 	   38.0019
    5.8518 	   26.7058 	   22.0000 	   55.0000 	   39.8770
    5.9129 	   27.2200 	   22.0000 	   55.0000 	   41.9341
    6.1570 	   27.7130 	   22.0000 	   55.0000 	   43.9062
    6.1875 	   28.2005 	   22.0000 	   55.0000 	   45.8563
    6.4622 	   28.7115 	   22.0000 	   55.0000 	   47.8995
    6.6300 	   29.2030 	   22.0000 	   55.0000 	   49.8656
    6.7063 	   29.7030 	   22.0000 	   55.0000 	   51.8657
    7.2557 	   30.2210 	   22.0000 	   55.0000 	   53.9378
    7.4388 	   30.7293 	   22.0000 	   55.0000 	   55.9709
    7.5608 	   31.2255 	   22.0000 	   55.0000 	   57.9560
    7.9423 	   31.7298 	   22.0000 	   55.0000 	   59.9732
    8.2017 	   32.2368 	   22.0000 	   56.0000 	    2.0013
    8.5222 	   32.7323 	   22.0000 	   56.0000 	    3.9824
    8.7510 	   33.2308 	   22.0000 	   56.0000 	    5.9765
    9.0410 	   33.7405 	   22.0000 	   56.0000 	    8.0156
    9.2241 	   34.2698 	   22.0000 	   56.0000 	   10.1327
    9.8802 	   34.7843 	   22.0000 	   56.0000 	   12.1909
   10.2770 	   35.3118 	   22.0000 	   56.0000 	   14.3010
   10.7805 	   35.8413 	   22.0000 	   56.0000 	   16.4191
   11.3909 	   36.3650 	   22.0000 	   56.0000 	   18.5142
   11.8944 	   36.9050 	   22.0000 	   56.0000 	   20.6743
   12.3217 	   37.4428 	   22.0000 	   56.0000 	   22.8245
   13.1609 	   37.9755 	   22.0000 	   56.0000 	   24.9556
   13.8781 	   38.5055 	   22.0000 	   56.0000 	   27.0757
   14.9004 	   39.0400 	   22.0000 	   56.0000 	   29.2138
   15.2056 	   39.5655 	   22.0000 	   56.0000 	   31.3159
   16.3043 	   40.0980 	   22.0000 	   56.0000 	   33.4461
   17.2351 	   40.6250 	   22.0000 	   56.0000 	   35.5542
   17.0825 	   41.1663 	   22.0000 	   56.0000 	   37.7193
   16.7468 	   41.7278 	   22.0000 	   56.0000 	   39.9644
   16.5484 	   42.2943 	   22.0000 	   56.0000 	   42.2306
   16.3195 	   42.8640 	   22.0000 	   56.0000 	   44.5097
   16.3195 	   43.4005 	   22.0000 	   56.0000 	   46.6558
   16.0754 	   43.9595 	   22.0000 	   56.0000 	   48.8919
   15.8618 	   44.5320 	   22.0000 	   56.0000 	   51.1821
   15.6786 	   45.0970 	   22.0000 	   56.0000 	   53.4422
   15.6939 	   45.6563 	   22.0000 	   56.0000 	   55.6793
   15.6176 	   46.2265 	   22.0000 	   56.0000 	   57.9595
   15.1904 	   46.7778 	   22.0000 	   57.0000 	    0.1646
   15.3735 	   47.3295 	   22.0000 	   57.0000 	    2.3717
   15.3735 	   47.8780 	   22.0000 	   57.0000 	    4.5658
   15.2209 	   48.4365 	   22.0000 	   57.0000 	    6.8000
   15.2361 	   49.0068 	   22.0000 	   57.0000 	    9.0811
   15.3429 	   49.5988 	   22.0000 	   57.0000 	   11.4492
   15.1293 	   50.2003 	   22.0000 	   57.0000 	   13.8554
   15.1598 	   50.8138 	   22.0000 	   57.0000 	   16.3085
   15.0225 	   51.4248 	   22.0000 	   57.0000 	   18.7527
   15.0378 	   52.0415 	   22.0000 	   57.0000 	   21.2198
   14.8852 	   52.6530 	   22.0000 	   57.0000 	   23.6659
   14.9920 	   53.2620 	   22.0000 	   57.0000 	   26.1021
   15.0072 	   53.8808 	   22.0000 	   57.0000 	   28.5772
   14.9920 	   54.4898 	   22.0000 	   57.0000 	   31.0134
   14.8547 	   55.1000 	   22.0000 	   57.0000 	   33.4535
   14.7631 	   55.7230 	   22.0000 	   57.0000 	   35.9456
   14.8241 	   56.3345 	   22.0000 	   57.0000 	   38.3918
   14.7021 	   56.9538 	   22.0000 	   57.0000 	   40.8689
   14.7936 	   57.5773 	   22.0000 	   57.0000 	   43.3631
   14.6410 	   58.2095 	   22.0000 	   57.0000 	   45.8922
   14.7936 	   58.8343 	   22.0000 	   57.0000 	   48.3914
   12.5353 	   59.4645 	   22.0000 	   57.0000 	   50.9115
   10.4753 	   60.1035 	   22.0000 	   57.0000 	   53.4676
    8.9342 	   60.7543 	   22.0000 	   57.0000 	   56.0708
    8.0339 	   61.3978 	   22.0000 	   57.0000 	   58.6449
    7.2862 	   62.0560 	   22.0000 	   58.0000 	    1.2781
    6.7521 	   62.7173 	   22.0000 	   58.0000 	    3.9232
    6.2181 	   63.3628 	   22.0000 	   58.0000 	    6.5054
    5.8671 	   64.0173 	   22.0000 	   58.0000 	    9.1225
    5.5619 	   64.6705 	   22.0000 	   58.0000 	   11.7357
    5.0126 	   65.3200 	   22.0000 	   58.0000 	   14.3338
    5.0736 	   65.9770 	   22.0000 	   58.0000 	   16.9620
    4.7532 	   66.6378 	   22.0000 	   58.0000 	   19.6051
    4.5243 	   67.3040 	   22.0000 	   58.0000 	   22.2703
    4.3259 	   67.9785 	   22.0000 	   58.0000 	   24.9674
    4.2344 	   68.6455 	   22.0000 	   58.0000 	   27.6356
    3.8987 	   69.3335 	   22.0000 	   58.0000 	   30.3878
    3.8376 	   70.0168 	   22.0000 	   58.0000 	   33.1209
    3.7308 	   70.6903 	   22.0000 	   58.0000 	   35.8151
    3.3188 	   71.3545 	   22.0000 	   58.0000 	   38.4722
    3.4409 	   72.0265 	   22.0000 	   58.0000 	   41.1604
    3.3341 	   72.7053 	   22.0000 	   58.0000 	   43.8745
    3.0900 	   73.3750 	   22.0000 	   58.0000 	   46.5537
    2.9374 	   74.0718 	   22.0000 	   58.0000 	   49.3408
    2.9068 	   74.7668 	   22.0000 	   58.0000 	   52.1210
    2.8916 	   75.4568 	   22.0000 	   58.0000 	   54.8812
    2.6932 	   76.1525 	   22.0000 	   58.0000 	   57.6643
    2.6322 	   76.8425 	   22.0000 	   59.0000 	    0.4235
    2.3575 	   77.5380 	   22.0000 	   59.0000 	    3.2056
    2.6474 	   78.2363 	   22.0000 	   59.0000 	    5.9988
    1.9150 	   78.9328 	   22.0000 	   59.0000 	    8.7850
    2.2354 	   79.6308 	   22.0000 	   59.0000 	   11.5771
    2.0523 	   80.3338 	   22.0000 	   59.0000 	   14.3893
    2.0523 	   81.0405 	   22.0000 	   59.0000 	   17.2154
    1.8845 	   81.7370 	   22.0000 	   59.0000 	   20.0016
    1.8692 	   82.4465 	   22.0000 	   59.0000 	   22.8398
    1.4725 	   83.1558 	   22.0000 	   59.0000 	   25.6769
    1.5640 	   83.8788 	   22.0000 	   59.0000 	   28.5691
    1.5335 	   84.5890 	   22.0000 	   59.0000 	   31.4102
    1.2741 	   85.3000 	   22.0000 	   59.0000 	   34.2534
    1.1521 	   86.0245 	   22.0000 	   59.0000 	   37.1516
    1.0300 	   86.7585 	   22.0000 	   59.0000 	   40.0877
    0.6638 	   87.4898 	   22.0000 	   59.0000 	   43.0129
    0.9384 	   88.2235 	   22.0000 	   59.0000 	   45.9481
    0.9689 	   88.9515 	   22.0000 	   59.0000 	   48.8602
    0.6790 	   89.6928 	   22.0000 	   59.0000 	   51.8244
    0.5264 	   90.4368 	   22.0000 	   59.0000 	   54.8006
    0.3586 	   91.1715 	   22.0000 	   59.0000 	   57.7398
    0.2823 	   91.8845 	   23.0000 	    0.0000 	    0.5919
    0.0992 	   92.6015 	   23.0000 	    0.0000 	    3.4601
    0.0839 	   93.3215 	   23.0000 	    0.0000 	    6.3402
    0.0992 	   93.5113 	   23.0000 	    0.0000 	    7.0993