File: instron/fabric_2W15L_drag30_spd15_nonstop.txt
Thayer School of Engineering        Instron 4442 Mechanical Testing System
6/28/2018 3:42:12 AM

  Force (N)	Extension (mm)	Not Used	Not Used	Not Used	     Hour	    Minute	    Second
    0.1907 	    0.2563 	    3.0000 	   42.0000 	   39.3139
    0.2213 	    0.6938 	    3.0000 	   42.0000 	   41.0640
    0.1907 	    0.9815 	    3.0000 	   42.0000 	   42.2151
    0.0076 	    1.2390 	    3.0000 	   42.0000 	   43.2451
    0.1297 	    1.4703 	    3.0000 	   42.0000 	   44.1702
    0.1755 	    1.7073 	    3.0000 	   42.0000 	   45.1182
    0.0839 	    1.9390 	    3.0000 	   42.0000 	   46.0453
    0.2365 	    2.1748 	    3.0000 	   42.0000 	   46.9883
    0.1450 	    2.4175 	    3.0000 	   42.0000 	   47.9594
    0.0992 	    2.6665 	    3.0000 	   42.0000 	   48.9554
    0.2213 	    2.9020 	    3.0000 	   42.0000 	   49.8975
    0.2060 	    3.1345 	    3.0000 	   42.0000 	   50.8276
    0.1602 	    3.3625 	    3.0000 	   42.0000 	   51.7396
    0.1602 	    3.5988 	    3.0000 	   42.0000 	   52.6847
    0.0839 	    3.8353 	    3.0000 	   42.0000 	   53.6307
    0.1297 	    4.0877 	    3.0000 	   42.0000 	   54.6408
    0.1755 	    4.3507 	    3.0000 	   42.0000 	   55.6918
    0.2213 	    4.6055 	    3.0000 	   42.0000 	   56.7109
    0.2213 	    4.8465 	    3.0000 	   42.0000 	   57.6749
    0.4196 	    5.0913 	    3.0000 	   42.0000 	   58.6540
    0.2823 	    5.3385 	    3.0000 	   42.0000 	   59.6431
    0.2670 	    5.5970 	    3.0000 	   43.0000 	    0.6771
    0.3891 	    5.8575 	    3.0000 	   43.0000 	    1.7192
    0.3738 	    6.1203 	    3.0000 	   43.0000 	    2.7702
    0.2976 	    6.3863 	    3.0000 	   43.0000 	    3.8343
    0.1450 	    6.6573 	    3.0000 	   43.0000 	    4.9184
    0.2518 	    6.9315 	    3.0000 	   43.0000 	    6.0154
    0.2518 	    7.2038 	    3.0000 	   43.0000 	    7.1045
    0.3738 	    7.4805 	    3.0000 	   43.0000 	    8.2116
    0.3281 	    7.7605 	    3.0000 	   43.0000 	    9.3316
    0.3891 	    8.0385 	    3.0000 	   43.0000 	   10.4437
    0.3891 	    8.3183 	    3.0000 	   43.0000 	   11.5627
    0.4044 	    8.6045 	    3.0000 	   43.0000 	   12.7078
    0.3281 	    8.8995 	    3.0000 	   43.0000 	   13.8869
    0.4654 	    9.1988 	    3.0000 	   43.0000 	   15.0839
    0.3433 	    9.4843 	    3.0000 	   43.0000 	   16.2260
    0.3891 	    9.7713 	    3.0000 	   43.0000 	   17.3741
    0.2518 	   10.0638 	    3.0000 	   43.0000 	   18.5441
    0.3738 	   10.3575 	    3.0000 	   43.0000 	   19.7192
    0.2670 	   10.6615 	    3.0000 	   43.0000 	   20.9353
    0.3891 	   10.9713 	    3.0000 	   43.0000 	   22.1744
    0.4654 	   11.2818 	    3.0000 	   43.0000 	   23.4164
    0.2518 	   11.5813 	    3.0000 	   43.0000 	   24.6145
    0.2976 	   11.8970 	    3.0000 	   43.0000 	   25.8776
    0.4044 	   12.2160 	    3.0000 	   43.0000 	   27.1536
    0.2976 	   12.5323 	    3.0000 	   43.0000 	   28.4187
    0.4349 	   12.8418 	    3.0000 	   43.0000 	   29.6568
    0.2365 	   13.1558 	    3.0000 	   43.0000 	   30.9118
    0.2823 	   13.4728 	    3.0000 	   43.0000 	   32.1799
    0.3433 	   13.7860 	    3.0000 	   43.0000 	   33.4330
    0.3433 	   14.1003 	    3.0000 	   43.0000 	   34.6901
    0.4349 	   14.4100 	    3.0000 	   43.0000 	   35.9291
    0.4654 	   14.7315 	    3.0000 	   43.0000 	   37.2152
    0.2365 	   15.0425 	    3.0000 	   43.0000 	   38.4593
    0.3586 	   15.3670 	    3.0000 	   43.0000 	   39.7574
    0.3281 	   15.6930 	    3.0000 	   43.0000 	   41.0614
    0.4349 	   16.0093 	    3.0000 	   43.0000 	   42.3265
    0.4959 	   16.3363 	    3.0000 	   43.0000 	   43.6336
    0.5264 	   16.6648 	    3.0000 	   43.0000 	   44.9487
    0.2823 	   16.9915 	    3.0000 	   43.0000 	   46.2557
    0.4349 	   17.3208 	    3.0000 	   43.0000 	   47.5728
    0.3281 	   17.6570 	    3.0000 	   43.0000 	   48.9169
    0.4654 	   17.9940 	    3.0000 	   43.0000 	   50.2650
    0.4501 	   18.3298 	    3.0000 	   43.0000 	   51.6080
    0.6332 	   18.6570 	    3.0000 	   43.0000 	   52.9171
    0.3586 	   18.9908 	    3.0000 	   43.0000 	   54.2522
    0.4349 	   19.3258 	    3.0000 	   43.0000 	   55.5923
    0.4807 	   19.6568 	    3.0000 	   43.0000 	   56.9163
    0.4044 	   20.0018 	    3.0000 	   43.0000 	   58.2964
    0.4349 	   20.3480 	    3.0000 	   43.0000 	   59.6815
    0.5875 	   20.6815 	    3.0000 	   44.0000 	    1.0156
    0.4349 	   21.0228 	    3.0000 	   44.0000 	    2.3806
    0.4501 	   21.3625 	    3.0000 	   44.0000 	    3.7397
    0.5112 	   21.7020 	    3.0000 	   44.0000 	    5.0978
    0.5875 	   22.0588 	    3.0000 	   44.0000 	    6.5239
    0.4959 	   22.4068 	    3.0000 	   44.0000 	    7.9160
    0.6332 	   22.7555 	    3.0000 	   44.0000 	    9.3110
    0.4807 	   23.0973 	    3.0000 	   44.0000 	   10.6781
    0.4044 	   23.4450 	    3.0000 	   44.0000 	   12.0692
    0.7706 	   23.7903 	    3.0000 	   44.0000 	   13.4503
    0.5722 	   24.1358 	    3.0000 	   44.0000 	   14.8324
    0.5722 	   24.4943 	    3.0000 	   44.0000 	   16.2664
    0.6485 	   24.8510 	    3.0000 	   44.0000 	   17.6935
    0.7095 	   25.2015 	    3.0000 	   44.0000 	   19.0956
    0.5417 	   25.5675 	    3.0000 	   44.0000 	   20.5597
    0.6332 	   25.9263 	    3.0000 	   44.0000 	   21.9948
    0.6332 	   26.2933 	    3.0000 	   44.0000 	   23.4619
    0.5264 	   26.6558 	    3.0000 	   44.0000 	   24.9119
    0.6790 	   27.0080 	    3.0000 	   44.0000 	   26.3210
    0.7401 	   27.3700 	    3.0000 	   44.0000 	   27.7691
    0.5875 	   27.7250 	    3.0000 	   44.0000 	   29.1892
    0.6943 	   28.0768 	    3.0000 	   44.0000 	   30.5963
    0.6180 	   28.4245 	    3.0000 	   44.0000 	   31.9873
    0.6943 	   28.7830 	    3.0000 	   44.0000 	   33.4214
    0.7248 	   29.1430 	    3.0000 	   44.0000 	   34.8615
    0.7706 	   29.4975 	    3.0000 	   44.0000 	   36.2796
    0.6638 	   29.8540 	    3.0000 	   44.0000 	   37.7057
    0.6485 	   30.2198 	    3.0000 	   44.0000 	   39.1688
    0.7706 	   30.5865 	    3.0000 	   44.0000 	   40.6348
    0.5570 	   30.9535 	    3.0000 	   44.0000 	   42.1029
    0.8011 	   31.3230 	    3.0000 	   44.0000 	   43.5810
    0.6790 	   31.7003 	    3.0000 	   44.0000 	   45.0901
    0.4654 	   32.0690 	    3.0000 	   44.0000 	   46.5652
    0.4807 	   32.4450 	    3.0000 	   44.0000 	   48.0693
    0.5417 	   32.8185 	    3.0000 	   44.0000 	   49.5633
    0.5112 	   33.1978 	    3.0000 	   44.0000 	   51.0804
    0.5264 	   33.5748 	    3.0000 	   44.0000 	   52.5885
    0.6027 	   33.9503 	    3.0000 	   44.0000 	   54.0906
    0.3128 	   34.3288 	    3.0000 	   44.0000 	   55.6047
    0.6180 	   34.7095 	    3.0000 	   44.0000 	   57.1278
    0.5722 	   35.0945 	    3.0000 	   44.0000 	   58.6669
    0.6180 	   35.4823 	    3.0000 	   45.0000 	    0.2180
    0.5722 	   35.8658 	    3.0000 	   45.0000 	    1.7520
    0.3891 	   36.2508 	    3.0000 	   45.0000 	    3.2921
    0.1297 	   36.6393 	    3.0000 	   45.0000 	    4.8462
    0.4349 	   37.0275 	    3.0000 	   45.0000 	    6.3993
    0.4501 	   37.4218 	    3.0000 	   45.0000 	    7.9764
    0.5722 	   37.8198 	    3.0000 	   45.0000 	    9.5685
    0.4959 	   38.2280 	    3.0000 	   45.0000 	   11.2016
    0.4654 	   38.6278 	    3.0000 	   45.0000 	   12.8007
    0.3891 	   39.0410 	    3.0000 	   45.0000 	   14.4538
    0.4501 	   39.4468 	    3.0000 	   45.0000 	   16.0759
    0.5112 	   39.8523 	    3.0000 	   45.0000 	   17.6980
    0.5264 	   40.2703 	    3.0000 	   45.0000 	   19.3701
    0.4654 	   40.6748 	    3.0000 	   45.0000 	   20.9881
    0.3128 	   41.0865 	    3.0000 	   45.0000 	   22.6352
    0.3586 	   41.4973 	    3.0000 	   45.0000 	   24.2783
    0.3281 	   41.9058 	    3.0000 	   45.0000 	   25.9124
    0.5264 	   42.3240 	    3.0000 	   45.0000 	   27.5855
    0.3891 	   42.7413 	    3.0000 	   45.0000 	   29.2546
    0.3128 	   43.1585 	    3.0000 	   45.0000 	   30.9237
    0.2976 	   43.5868 	    3.0000 	   45.0000 	   32.6368
    0.3586 	   44.0125 	    3.0000 	   45.0000 	   34.3389
    0.3128 	   44.4343 	    3.0000 	   45.0000 	   36.0260
    0.2518 	   44.8688 	    3.0000 	   45.0000 	   37.7641
    0.3738 	   45.2995 	    3.0000 	   45.0000 	   39.4872
    0.2518 	   45.7350 	    3.0000 	   45.0000 	   41.2293
    0.2365 	   46.1650 	    3.0000 	   45.0000 	   42.9494
    0.3433 	   46.5990 	    3.0000 	   45.0000 	   44.6855
    0.2823 	   47.0308 	    3.0000 	   45.0000 	   46.4126
    0.2518 	   47.4640 	    3.0000 	   45.0000 	   48.1457
    0.2213 	   47.8953 	    3.0000 	   45.0000 	   49.8708
    0.2670 	   48.3350 	    3.0000 	   45.0000 	   51.6289
    0.3433 	   48.7828 	    3.0000 	   45.0000 	   53.4200
    0.2670 	   49.2220 	    3.0000 	   45.0000 	   55.1771
    0.4349 	   49.6568 	    3.0000 	   45.0000 	   56.9162
    0.2823 	   50.0918 	    3.0000 	   45.0000 	   58.6563
    0.2060 	   50.5365 	    3.0000 	   46.0000 	    0.4354
    0.2823 	   50.9853 	    3.0000 	   46.0000 	    2.2305
    0.1450 	   51.4293 	    3.0000 	   46.0000 	    4.0066
    0.2213 	   51.8770 	    3.0000 	   46.0000 	    5.7977
    0.2213 	   52.3295 	    3.0000 	   46.0000 	    7.6078
    0.1297 	   52.7808 	    3.0000 	   46.0000 	    9.4119
    0.2213 	   53.2328 	    3.0000 	   46.0000 	   11.2200
    0.1755 	   53.6835 	    3.0000 	   46.0000 	   13.0231
    0.1755 	   54.1528 	    3.0000 	   46.0000 	   14.9002
    0.1755 	   54.6098 	    3.0000 	   46.0000 	   16.7283
    0.1297 	   55.0723 	    3.0000 	   46.0000 	   18.5784
    0.1907 	   55.5270 	    3.0000 	   46.0000 	   20.3975
    0.1602 	   55.9953 	    3.0000 	   46.0000 	   22.2707
    0.1450 	   56.4560 	    3.0000 	   46.0000 	   24.1138
    0.1297 	   56.9253 	    3.0000 	   46.0000 	   25.9899
    0.3433 	   57.4013 	    3.0000 	   46.0000 	   27.8940
    0.2060 	   57.8600 	    3.0000 	   46.0000 	   29.7291
    0.0381 	   58.3293 	    3.0000 	   46.0000 	   31.6062
    0.1450 	   58.7995 	    3.0000 	   46.0000 	   33.4873
    0.1144 	   59.2663 	    3.0000 	   46.0000 	   35.3544
    0.1297 	   59.7138 	    3.0000 	   46.0000 	   37.1445
   -0.0992 	   60.1640 	    3.0000 	   46.0000 	   38.9456
    0.1297 	   60.5903 	    3.0000 	   46.0000 	   40.6507