File: instron/long_1W15L_drag30_spd15.txt
Thayer School of Engineering        Instron 4442 Mechanical Testing System
6/28/2018 4:33:15 AM

  Force (N)	Extension (mm)	Not Used	Not Used	Not Used	     Hour	    Minute	    Second
   -0.0992 	    0.2563 	    4.0000 	   33.0000 	   51.2286
    0.1450 	    0.6338 	    4.0000 	   33.0000 	   52.7387
    0.1755 	    0.9485 	    4.0000 	   33.0000 	   53.9978
    0.2518 	    1.1898 	    4.0000 	   33.0000 	   54.9628
    0.2060 	    1.4100 	    4.0000 	   33.0000 	   55.8439
    0.2518 	    1.6345 	    4.0000 	   33.0000 	   56.7409
    0.2823 	    1.8523 	    4.0000 	   33.0000 	   57.6120
    0.3738 	    2.0815 	    4.0000 	   33.0000 	   58.5290
    0.1144 	    2.2985 	    4.0000 	   33.0000 	   59.3971
    0.1602 	    2.5190 	    4.0000 	   34.0000 	    0.2791
    0.2213 	    2.7403 	    4.0000 	   34.0000 	    1.1642
    0.2213 	    2.9690 	    4.0000 	   34.0000 	    2.0792
    0.3128 	    3.1963 	    4.0000 	   34.0000 	    2.9883
    0.2365 	    3.4270 	    4.0000 	   34.0000 	    3.9113
    0.2213 	    3.6573 	    4.0000 	   34.0000 	    4.8324
    0.3281 	    3.8893 	    4.0000 	   34.0000 	    5.7604
    0.3433 	    4.1263 	    4.0000 	   34.0000 	    6.7085
    0.2670 	    4.3645 	    4.0000 	   34.0000 	    7.6615
    0.2823 	    4.6123 	    4.0000 	   34.0000 	    8.6526
    0.3128 	    4.8668 	    4.0000 	   34.0000 	    9.6707
    0.2518 	    5.1180 	    4.0000 	   34.0000 	   10.6757
    0.1297 	    5.3685 	    4.0000 	   34.0000 	   11.6778
    0.3128 	    5.6310 	    4.0000 	   34.0000 	   12.7278
    0.2670 	    5.8910 	    4.0000 	   34.0000 	   13.7679
    0.2976 	    6.1550 	    4.0000 	   34.0000 	   14.8230
    0.3128 	    6.4250 	    4.0000 	   34.0000 	   15.9030
    0.1907 	    6.6960 	    4.0000 	   34.0000 	   16.9871
    0.1450 	    6.9650 	    4.0000 	   34.0000 	   18.0631
    0.2518 	    7.2308 	    4.0000 	   34.0000 	   19.1262
    0.2365 	    7.5065 	    4.0000 	   34.0000 	   20.2293
    0.1907 	    7.7823 	    4.0000 	   34.0000 	   21.3323
    0.3128 	    8.0593 	    4.0000 	   34.0000 	   22.4404
    0.2213 	    8.3448 	    4.0000 	   34.0000 	   23.5825
    0.3281 	    8.6238 	    4.0000 	   34.0000 	   24.6985
    0.4044 	    8.9028 	    4.0000 	   34.0000 	   25.8146
    0.2976 	    9.1900 	    4.0000 	   34.0000 	   26.9636
    0.2823 	    9.4765 	    4.0000 	   34.0000 	   28.1097
    0.1907 	    9.7628 	    4.0000 	   34.0000 	   29.2548
    0.2823 	   10.0508 	    4.0000 	   34.0000 	   30.4068
    0.2976 	   10.3473 	    4.0000 	   34.0000 	   31.5919
    0.2976 	   10.6343 	    4.0000 	   34.0000 	   32.7400
    0.1907 	   10.9135 	    4.0000 	   34.0000 	   33.8570
    0.2976 	   11.2043 	    4.0000 	   34.0000 	   35.0201
   -0.0534 	   11.5063 	    4.0000 	   34.0000 	   36.2282
    0.2518 	   11.7998 	    4.0000 	   34.0000 	   37.4022
    0.2060 	   12.1048 	    4.0000 	   34.0000 	   38.6223
    0.2670 	   12.4085 	    4.0000 	   34.0000 	   39.8374
    0.2365 	   12.7198 	    4.0000 	   34.0000 	   41.0825
    0.2060 	   13.0205 	    4.0000 	   34.0000 	   42.2855
    0.3128 	   13.3165 	    4.0000 	   34.0000 	   43.4696
    0.2670 	   13.6208 	    4.0000 	   34.0000 	   44.6867
    0.4349 	   13.9245 	    4.0000 	   34.0000 	   45.9017
    0.2518 	   14.2308 	    4.0000 	   34.0000 	   47.1268
    0.4807 	   14.5355 	    4.0000 	   34.0000 	   48.3459
    0.2976 	   14.8533 	    4.0000 	   34.0000 	   49.6159
    0.1602 	   15.1650 	    4.0000 	   34.0000 	   50.8630
    0.3433 	   15.4750 	    4.0000 	   34.0000 	   52.1031
    0.3586 	   15.7908 	    4.0000 	   34.0000 	   53.3662
    0.4959 	   16.1088 	    4.0000 	   34.0000 	   54.6382
    0.4044 	   16.4198 	    4.0000 	   34.0000 	   55.8823
    0.2213 	   16.7350 	    4.0000 	   34.0000 	   57.1434
    0.4807 	   17.0510 	    4.0000 	   34.0000 	   58.4074
    0.4044 	   17.3653 	    4.0000 	   34.0000 	   59.6645
    0.0534 	   17.6820 	    4.0000 	   35.0000 	    0.9316
    0.3433 	   18.0223 	    4.0000 	   35.0000 	    2.2927
    0.3891 	   18.3460 	    4.0000 	   35.0000 	    3.5877
    0.3281 	   18.6720 	    4.0000 	   35.0000 	    4.8918
    0.3891 	   19.0033 	    4.0000 	   35.0000 	    6.2169
    0.3738 	   19.3345 	    4.0000 	   35.0000 	    7.5410
    0.3128 	   19.6633 	    4.0000 	   35.0000 	    8.8560
    0.2823 	   19.9935 	    4.0000 	   35.0000 	   10.1771
    0.4196 	   20.3315 	    4.0000 	   35.0000 	   11.5292
    0.3281 	   20.6678 	    4.0000 	   35.0000 	   12.8743
    0.3891 	   21.0158 	    4.0000 	   35.0000 	   14.2664
    0.3586 	   21.3645 	    4.0000 	   35.0000 	   15.6614
    0.5112 	   21.7130 	    4.0000 	   35.0000 	   17.0555
    0.3891 	   22.0495 	    4.0000 	   35.0000 	   18.4016
    0.3738 	   22.3838 	    4.0000 	   35.0000 	   19.7387
    0.4349 	   22.7295 	    4.0000 	   35.0000 	   21.1217
    0.3433 	   23.0738 	    4.0000 	   35.0000 	   22.4988
    0.3586 	   23.4300 	    4.0000 	   35.0000 	   23.9229
    0.3433 	   23.7903 	    4.0000 	   35.0000 	   25.3640
    0.3433 	   24.1363 	    4.0000 	   35.0000 	   26.7481
    0.2976 	   24.4853 	    4.0000 	   35.0000 	   28.1441
    0.4501 	   24.8393 	    4.0000 	   35.0000 	   29.5602
    0.3433 	   25.1908 	    4.0000 	   35.0000 	   30.9663
    0.4654 	   25.5505 	    4.0000 	   35.0000 	   32.4054
    0.5264 	   25.9123 	    4.0000 	   35.0000 	   33.8525
    0.3128 	   26.2713 	    4.0000 	   35.0000 	   35.2886
    0.3891 	   26.6318 	    4.0000 	   35.0000 	   36.7306
    0.4654 	   26.9840 	    4.0000 	   35.0000 	   38.1397
    0.3738 	   27.3483 	    4.0000 	   35.0000 	   39.5968
    0.5264 	   27.7133 	    4.0000 	   35.0000 	   41.0569
    0.4196 	   28.0760 	    4.0000 	   35.0000 	   42.5070
    0.4654 	   28.4410 	    4.0000 	   35.0000 	   43.9670
    0.3433 	   28.8213 	    4.0000 	   35.0000 	   45.4881
    0.3738 	   29.1960 	    4.0000 	   35.0000 	   46.9872
    0.4349 	   29.5748 	    4.0000 	   35.0000 	   48.5023
    0.2976 	   29.9515 	    4.0000 	   35.0000 	   50.0094
    0.3738 	   30.3258 	    4.0000 	   35.0000 	   51.5065
    0.3738 	   30.7013 	    4.0000 	   35.0000 	   53.0086
    0.3281 	   31.0793 	    4.0000 	   35.0000 	   54.5207
    0.1602 	   31.4583 	    4.0000 	   35.0000 	   56.0367
    0.4654 	   31.8413 	    4.0000 	   35.0000 	   57.5688
    0.3738 	   32.2243 	    4.0000 	   35.0000 	   59.0999
    0.3738 	   32.6020 	    4.0000 	   36.0000 	    0.6110
    0.2823 	   32.9890 	    4.0000 	   36.0000 	    2.1591
    0.2518 	   33.3670 	    4.0000 	   36.0000 	    3.6712
    0.2670 	   33.7583 	    4.0000 	   36.0000 	    5.2363
    0.5875 	   34.1508 	    4.0000 	   36.0000 	    6.8064
    0.3281 	   34.5510 	    4.0000 	   36.0000 	    8.4074
    0.4196 	   34.9508 	    4.0000 	   36.0000 	   10.0065
    0.1755 	   35.3543 	    4.0000 	   36.0000 	   11.6206
    0.2060 	   35.7523 	    4.0000 	   36.0000 	   13.2127
    0.3128 	   36.1513 	    4.0000 	   36.0000 	   14.8088
    0.2518 	   36.5473 	    4.0000 	   36.0000 	   16.3919
    0.2365 	   36.9450 	    4.0000 	   36.0000 	   17.9830
    0.2823 	   37.3540 	    4.0000 	   36.0000 	   19.6191
    0.3281 	   37.7580 	    4.0000 	   36.0000 	   21.2352
    0.4196 	   38.1648 	    4.0000 	   36.0000 	   22.8623
    0.3281 	   38.5703 	    4.0000 	   36.0000 	   24.4844
    0.2518 	   38.9870 	    4.0000 	   36.0000 	   26.1515
    0.2976 	   39.4010 	    4.0000 	   36.0000 	   27.8076
    0.3128 	   39.8095 	    4.0000 	   36.0000 	   29.4417
    0.3433 	   40.2210 	    4.0000 	   36.0000 	   31.0877
    0.1907 	   40.6395 	    4.0000 	   36.0000 	   32.7618
    0.2823 	   41.0625 	    4.0000 	   36.0000 	   34.4529
    0.3281 	   41.4775 	    4.0000 	   36.0000 	   36.1130
    0.3586 	   41.8978 	    4.0000 	   36.0000 	   37.7941
    0.2060 	   42.3183 	    4.0000 	   36.0000 	   39.4762
    0.2518 	   42.7363 	    4.0000 	   36.0000 	   41.1483
    0.1755 	   43.1650 	    4.0000 	   36.0000 	   42.8634
    0.2670 	   43.5830 	    4.0000 	   36.0000 	   44.5355
    0.3128 	   44.0075 	    4.0000 	   36.0000 	   46.2336
    0.0229 	   44.4433 	    4.0000 	   36.0000 	   47.9767
    0.0992 	   44.8703 	    4.0000 	   36.0000 	   49.6848
    0.2365 	   45.3003 	    4.0000 	   36.0000 	   51.4039
    0.3128 	   45.7243 	    4.0000 	   36.0000 	   53.1000
    0.3586 	   46.1518 	    4.0000 	   36.0000 	   54.8101
    0.2518 	   46.5873 	    4.0000 	   36.0000 	   56.5522
    0.3281 	   47.0170 	    4.0000 	   36.0000 	   58.2713
    0.1755 	   47.4535 	    4.0000 	   37.0000 	    0.0174
    0.2518 	   47.8925 	    4.0000 	   37.0000 	    1.7735
    0.2518 	   48.3333 	    4.0000 	   37.0000 	    3.5366
    0.3891 	   48.7760 	    4.0000 	   37.0000 	    5.3077
   -0.0992 	   49.2245 	    4.0000 	   37.0000 	    7.1018
    0.2213 	   49.6700 	    4.0000 	   37.0000 	    8.8829
    0.2976 	   50.1190 	    4.0000 	   37.0000 	   10.6790
    0.1755 	   50.5670 	    4.0000 	   37.0000 	   12.4711
    0.2365 	   51.0133 	    4.0000 	   37.0000 	   14.2562
    0.2060 	   51.4623 	    4.0000 	   37.0000 	   16.0523
    0.2518 	   51.9183 	    4.0000 	   37.0000 	   17.8764
    0.0076 	   52.3678 	    4.0000 	   37.0000 	   19.6745
    0.1297 	   52.8238 	    4.0000 	   37.0000 	   21.4986
    0.3586 	   53.2708 	    4.0000 	   37.0000 	   23.2867
    0.2365 	   53.7195 	    4.0000 	   37.0000 	   25.0818
    0.2060 	   54.1743 	    4.0000 	   37.0000 	   26.8999
    0.2823 	   54.6353 	    4.0000 	   37.0000 	   28.7440
    0.3128 	   55.1038 	    4.0000 	   37.0000 	   30.6182
    0.3738 	   55.5613 	    4.0000 	   37.0000 	   32.4483
    0.1297 	   56.0240 	    4.0000 	   37.0000 	   34.2994
    0.1297 	   56.4868 	    4.0000 	   37.0000 	   36.1505
    0.2365 	   56.9565 	    4.0000 	   37.0000 	   38.0296
    0.3738 	   57.4235 	    4.0000 	   37.0000 	   39.8977
    0.2823 	   57.8995 	    4.0000 	   37.0000 	   41.8018
    0.2365 	   58.3705 	    4.0000 	   37.0000 	   43.6849
    0.1907 	   58.8405 	    4.0000 	   37.0000 	   45.5650
    0.2823 	   59.3170 	    4.0000 	   37.0000 	   47.4711
    0.2365 	   59.7940 	    4.0000 	   37.0000 	   49.3792
    0.1907 	   60.0383 	    4.0000 	   37.0000 	   50.3563