File: instron/long_3W15L_drag30_spd15.txt
Thayer School of Engineering        Instron 4442 Mechanical Testing System
6/28/2018 4:40:11 AM

  Force (N)	Extension (mm)	Not Used	Not Used	Not Used	     Hour	    Minute	    Second
    0.3128 	    0.2560 	    4.0000 	   40.0000 	   27.1022
    0.4044 	    0.6695 	    4.0000 	   40.0000 	   28.7563
    0.2976 	    0.9875 	    4.0000 	   40.0000 	   30.0284
    0.2976 	    1.2593 	    4.0000 	   40.0000 	   31.1155
    0.0381 	    1.5005 	    4.0000 	   40.0000 	   32.0805
    0.4349 	    1.7355 	    4.0000 	   40.0000 	   33.0206
    0.4044 	    1.9813 	    4.0000 	   40.0000 	   34.0026
    0.2976 	    2.2315 	    4.0000 	   40.0000 	   35.0037
    0.1907 	    2.4815 	    4.0000 	   40.0000 	   36.0038
    0.2365 	    2.7400 	    4.0000 	   40.0000 	   37.0378
    0.3738 	    3.0020 	    4.0000 	   40.0000 	   38.0859
    0.2213 	    3.2673 	    4.0000 	   40.0000 	   39.1469
    0.2213 	    3.5180 	    4.0000 	   40.0000 	   40.1500
    0.3128 	    3.7755 	    4.0000 	   40.0000 	   41.1800
    0.3281 	    4.0285 	    4.0000 	   40.0000 	   42.1921
    0.2670 	    4.2960 	    4.0000 	   40.0000 	   43.2622
    0.2670 	    4.5675 	    4.0000 	   40.0000 	   44.3482
    0.0076 	    4.8243 	    4.0000 	   40.0000 	   45.3753
    0.1297 	    5.0938 	    4.0000 	   40.0000 	   46.4534
    0.3891 	    5.3550 	    4.0000 	   40.0000 	   47.4974
    0.3281 	    5.6128 	    4.0000 	   40.0000 	   48.5295
    0.2670 	    5.8840 	    4.0000 	   40.0000 	   49.6145
    0.3738 	    6.1573 	    4.0000 	   40.0000 	   50.7076
    0.5112 	    6.4283 	    4.0000 	   40.0000 	   51.7907
    0.4501 	    6.7085 	    4.0000 	   40.0000 	   52.9117
    0.3281 	    6.9935 	    4.0000 	   40.0000 	   54.0518
    0.3128 	    7.2770 	    4.0000 	   40.0000 	   55.1859
    0.4196 	    7.5493 	    4.0000 	   40.0000 	   56.2749
    0.4959 	    7.8305 	    4.0000 	   40.0000 	   57.4000
    0.4196 	    8.1130 	    4.0000 	   40.0000 	   58.5300
    0.4349 	    8.4055 	    4.0000 	   40.0000 	   59.7001
    0.3891 	    8.7033 	    4.0000 	   41.0000 	    0.8912
    0.4044 	    9.0063 	    4.0000 	   41.0000 	    2.1032
    0.3281 	    9.3110 	    4.0000 	   41.0000 	    3.3223
    0.3891 	    9.5910 	    4.0000 	   41.0000 	    4.4424
    0.1450 	    9.8843 	    4.0000 	   41.0000 	    5.6154
    0.4044 	   10.1680 	    4.0000 	   41.0000 	    6.7505
    0.3586 	   10.4675 	    4.0000 	   41.0000 	    7.9486
    0.4501 	   10.7618 	    4.0000 	   41.0000 	    9.1246
    0.4501 	   11.0618 	    4.0000 	   41.0000 	   10.3247
    0.3281 	   11.3528 	    4.0000 	   41.0000 	   11.4888
    0.4807 	   11.6610 	    4.0000 	   41.0000 	   12.7219
    0.5112 	   11.9813 	    4.0000 	   41.0000 	   14.0029
    0.5875 	   12.3083 	    4.0000 	   41.0000 	   15.3110
    0.4654 	   12.6290 	    4.0000 	   41.0000 	   16.5941
    0.6790 	   12.9288 	    4.0000 	   41.0000 	   17.7931
    0.4044 	   13.2485 	    4.0000 	   41.0000 	   19.0722
    0.4959 	   13.5563 	    4.0000 	   41.0000 	   20.3033
    0.5417 	   13.8795 	    4.0000 	   41.0000 	   21.5964
    0.4349 	   14.2018 	    4.0000 	   41.0000 	   22.8854
    0.2976 	   14.5355 	    4.0000 	   41.0000 	   24.2205
    0.4349 	   14.8528 	    4.0000 	   41.0000 	   25.4896
    0.6180 	   15.1783 	    4.0000 	   41.0000 	   26.7907
    0.6485 	   15.5028 	    4.0000 	   41.0000 	   28.0887
    0.4501 	   15.8278 	    4.0000 	   41.0000 	   29.3888
    0.6180 	   16.1718 	    4.0000 	   41.0000 	   30.7649
    0.5264 	   16.5083 	    4.0000 	   41.0000 	   32.1110
    0.5112 	   16.8513 	    4.0000 	   41.0000 	   33.4830
    0.2213 	   17.1910 	    4.0000 	   41.0000 	   34.8421
    0.5570 	   17.5273 	    4.0000 	   41.0000 	   36.1872
    0.4807 	   17.8615 	    4.0000 	   41.0000 	   37.5243
    0.2670 	   18.1955 	    4.0000 	   41.0000 	   38.8603
    0.5112 	   18.5375 	    4.0000 	   41.0000 	   40.2284
    0.5722 	   18.8820 	    4.0000 	   41.0000 	   41.6065
    0.5570 	   19.2235 	    4.0000 	   41.0000 	   42.9726
    0.4807 	   19.5710 	    4.0000 	   41.0000 	   44.3617
    0.5875 	   19.9145 	    4.0000 	   41.0000 	   45.7357
    0.4501 	   20.2500 	    4.0000 	   41.0000 	   47.0778
    0.6943 	   20.5938 	    4.0000 	   41.0000 	   48.4529
    0.6180 	   20.9463 	    4.0000 	   41.0000 	   49.8630
    0.4959 	   21.2988 	    4.0000 	   41.0000 	   51.2731
    0.6638 	   21.6475 	    4.0000 	   41.0000 	   52.6681
    0.8164 	   21.9943 	    4.0000 	   41.0000 	   54.0552
    0.5722 	   22.3433 	    4.0000 	   41.0000 	   55.4513
    0.7401 	   22.7025 	    4.0000 	   41.0000 	   56.8884
    0.7553 	   23.0555 	    4.0000 	   41.0000 	   58.3005
    0.4196 	   23.4085 	    4.0000 	   41.0000 	   59.7125
    0.5112 	   23.7705 	    4.0000 	   42.0000 	    1.1596
    0.4196 	   24.1215 	    4.0000 	   42.0000 	    2.5637
    0.6943 	   24.4728 	    4.0000 	   42.0000 	    3.9688
    0.6638 	   24.8253 	    4.0000 	   42.0000 	    5.3789
    0.7248 	   25.1975 	    4.0000 	   42.0000 	    6.8680
    0.7401 	   25.5598 	    4.0000 	   42.0000 	    8.3170
    0.7401 	   25.9195 	    4.0000 	   42.0000 	    9.7561
    0.8621 	   26.2793 	    4.0000 	   42.0000 	   11.1952
    0.7401 	   26.6455 	    4.0000 	   42.0000 	   12.6603
    0.8316 	   27.0250 	    4.0000 	   42.0000 	   14.1784
    0.7706 	   27.3970 	    4.0000 	   42.0000 	   15.6665
    0.7401 	   27.7648 	    4.0000 	   42.0000 	   17.1375
    0.7553 	   28.1313 	    4.0000 	   42.0000 	   18.6026
    0.7858 	   28.4973 	    4.0000 	   42.0000 	   20.0667
    0.8621 	   28.8655 	    4.0000 	   42.0000 	   21.5398
    0.7858 	   29.2360 	    4.0000 	   42.0000 	   23.0219
    0.4349 	   29.6060 	    4.0000 	   42.0000 	   24.5020
    0.7401 	   29.9713 	    4.0000 	   42.0000 	   25.9630
    0.8774 	   30.3520 	    4.0000 	   42.0000 	   27.4861
    0.9079 	   30.7250 	    4.0000 	   42.0000 	   28.9782
    0.8774 	   31.0920 	    4.0000 	   42.0000 	   30.4463
    0.5722 	   31.4700 	    4.0000 	   42.0000 	   31.9584
    0.4501 	   31.8450 	    4.0000 	   42.0000 	   33.4585
    0.7553 	   32.2283 	    4.0000 	   42.0000 	   34.9916
    0.7095 	   32.6053 	    4.0000 	   42.0000 	   36.4986
    0.6790 	   32.9923 	    4.0000 	   42.0000 	   38.0467
    0.7553 	   33.3865 	    4.0000 	   42.0000 	   39.6238
    0.6180 	   33.7733 	    4.0000 	   42.0000 	   41.1709
    0.7553 	   34.1600 	    4.0000 	   42.0000 	   42.7180
    0.7248 	   34.5483 	    4.0000 	   42.0000 	   44.2711
    0.6180 	   34.9403 	    4.0000 	   42.0000 	   45.8392
    0.6180 	   35.3325 	    4.0000 	   42.0000 	   47.4083
    0.2976 	   35.7260 	    4.0000 	   42.0000 	   48.9824
    0.5875 	   36.1273 	    4.0000 	   42.0000 	   50.5875
    0.7401 	   36.5238 	    4.0000 	   42.0000 	   52.1735
    0.6485 	   36.9318 	    4.0000 	   42.0000 	   53.8046
    0.5417 	   37.3385 	    4.0000 	   42.0000 	   55.4317
    0.6943 	   37.7468 	    4.0000 	   42.0000 	   57.0648
    0.5570 	   38.1405 	    4.0000 	   42.0000 	   58.6399
    0.4807 	   38.5452 	    4.0000 	   43.0000 	    0.2590
    0.5417 	   38.9610 	    4.0000 	   43.0000 	    1.9221
    0.6332 	   39.3703 	    4.0000 	   43.0000 	    3.5592
    0.4349 	   39.7803 	    4.0000 	   43.0000 	    5.1993
    0.4501 	   40.1870 	    4.0000 	   43.0000 	    6.8264
    0.6638 	   40.6030 	    4.0000 	   43.0000 	    8.4905
    0.4196 	   41.0143 	    4.0000 	   43.0000 	   10.1356
    0.4654 	   41.4368 	    4.0000 	   43.0000 	   11.8247
    0.4959 	   41.8595 	    4.0000 	   43.0000 	   13.5158
    0.5417 	   42.2790 	    4.0000 	   43.0000 	   15.1939
    0.4196 	   42.6998 	    4.0000 	   43.0000 	   16.8770
    0.3281 	   43.1205 	    4.0000 	   43.0000 	   18.5601
    0.4196 	   43.5460 	    4.0000 	   43.0000 	   20.2621
    0.4654 	   43.9683 	    4.0000 	   43.0000 	   21.9512
    0.3433 	   44.3855 	    4.0000 	   43.0000 	   23.6203
    0.5417 	   44.8053 	    4.0000 	   43.0000 	   25.2994
    0.0992 	   45.2345 	    4.0000 	   43.0000 	   27.0165
    0.4196 	   45.6645 	    4.0000 	   43.0000 	   28.7356
    0.2060 	   46.0973 	    4.0000 	   43.0000 	   30.4667
    0.6180 	   46.5350 	    4.0000 	   43.0000 	   32.2178
    0.1297 	   46.9695 	    4.0000 	   43.0000 	   33.9559
    0.4196 	   47.4085 	    4.0000 	   43.0000 	   35.7120
    0.4196 	   47.8425 	    4.0000 	   43.0000 	   37.4481
    0.4959 	   48.2795 	    4.0000 	   43.0000 	   39.1962
    0.3586 	   48.7163 	    4.0000 	   43.0000 	   40.9433
    0.3433 	   49.1583 	    4.0000 	   43.0000 	   42.7114
    0.4959 	   49.6035 	    4.0000 	   43.0000 	   44.4925
    0.3738 	   50.0543 	    4.0000 	   43.0000 	   46.2946
    0.4044 	   50.5068 	    4.0000 	   43.0000 	   48.1047
    0.2976 	   50.9668 	    4.0000 	   43.0000 	   49.9448
    0.2823 	   51.4333 	    4.0000 	   43.0000 	   51.8110
    0.2976 	   51.8943 	    4.0000 	   43.0000 	   53.6551
    0.2213 	   52.3363 	    4.0000 	   43.0000 	   55.4232
    0.2213 	   52.7813 	    4.0000 	   43.0000 	   57.2033
    0.4501 	   53.2325 	    4.0000 	   43.0000 	   59.0084
    0.2823 	   53.6908 	    4.0000 	   44.0000 	    0.8415
    0.1297 	   54.1473 	    4.0000 	   44.0000 	    2.6676
    0.3433 	   54.6120 	    4.0000 	   44.0000 	    4.5257
    0.2365 	   55.0723 	    4.0000 	   44.0000 	    6.3668
    0.0534 	   55.5448 	    4.0000 	   44.0000 	    8.2569
    0.2823 	   56.0055 	    4.0000 	   44.0000 	   10.1000
    0.2670 	   56.4673 	    4.0000 	   44.0000 	   11.9471
    0.3128 	   56.9295 	    4.0000 	   44.0000 	   13.7962
    0.2213 	   57.4018 	    4.0000 	   44.0000 	   15.6853
    0.3128 	   57.8743 	    4.0000 	   44.0000 	   17.5754
    0.2060 	   58.3443 	    4.0000 	   44.0000 	   19.4555
    0.0229 	   58.8133 	    4.0000 	   44.0000 	   21.3306
    0.4044 	   59.2855 	    4.0000 	   44.0000 	   23.2197
    0.2976 	   59.7560 	    4.0000 	   44.0000 	   25.1019
    0.2670 	   60.2220 	    4.0000 	   44.0000 	   26.9660
    0.1144 	   60.6023 	    4.0000 	   44.0000 	   28.4871