File: instron/med_3W15L_drag30_spd15.txt
Thayer School of Engineering        Instron 4442 Mechanical Testing System
6/28/2018 5:02:13 AM

  Force (N)	Extension (mm)	Not Used	Not Used	Not Used	     Hour	    Minute	    Second
    0.2213 	    0.2560 	    5.0000 	    2.0000 	   39.5405
    0.2823 	    0.6463 	    5.0000 	    2.0000 	   41.1015
    0.2976 	    0.9750 	    5.0000 	    2.0000 	   42.4166
    0.1755 	    1.2318 	    5.0000 	    2.0000 	   43.4437
    0.1907 	    1.4825 	    5.0000 	    2.0000 	   44.4467
    0.4349 	    1.7350 	    5.0000 	    2.0000 	   45.4568
    0.2060 	    1.9845 	    5.0000 	    2.0000 	   46.4548
    0.3738 	    2.2343 	    5.0000 	    2.0000 	   47.4539
    0.2670 	    2.4898 	    5.0000 	    2.0000 	   48.4760
    0.2518 	    2.7438 	    5.0000 	    2.0000 	   49.4920
    0.4044 	    2.9980 	    5.0000 	    2.0000 	   50.5091
    0.3586 	    3.2520 	    5.0000 	    2.0000 	   51.5251
    0.2976 	    3.5113 	    5.0000 	    2.0000 	   52.5612
    0.2976 	    3.7610 	    5.0000 	    2.0000 	   53.5603
    0.2518 	    4.0223 	    5.0000 	    2.0000 	   54.6053
    0.5264 	    4.2803 	    5.0000 	    2.0000 	   55.6374
    0.4654 	    4.5380 	    5.0000 	    2.0000 	   56.6684
    0.4501 	    4.8040 	    5.0000 	    2.0000 	   57.7325
    0.4501 	    5.0708 	    5.0000 	    2.0000 	   58.7996
    0.3891 	    5.3348 	    5.0000 	    2.0000 	   59.8556
    0.4044 	    5.6058 	    5.0000 	    3.0000 	    0.9397
    0.3281 	    5.8698 	    5.0000 	    3.0000 	    1.9957
    0.4044 	    6.1423 	    5.0000 	    3.0000 	    3.0858
    0.4044 	    6.4028 	    5.0000 	    3.0000 	    4.1279
    0.3586 	    6.6785 	    5.0000 	    3.0000 	    5.2309
    0.4044 	    6.9608 	    5.0000 	    3.0000 	    6.3600
    0.3433 	    7.2453 	    5.0000 	    3.0000 	    7.4981
    0.3281 	    7.5345 	    5.0000 	    3.0000 	    8.6551
    0.4349 	    7.8243 	    5.0000 	    3.0000 	    9.8132
    0.3128 	    8.1028 	    5.0000 	    3.0000 	   10.9263
    0.4349 	    8.3880 	    5.0000 	    3.0000 	   12.0683
    0.3891 	    8.6735 	    5.0000 	    3.0000 	   13.2104
    0.5417 	    8.9498 	    5.0000 	    3.0000 	   14.3154
    0.4654 	    9.2335 	    5.0000 	    3.0000 	   15.4505
    0.4196 	    9.5275 	    5.0000 	    3.0000 	   16.6266
    0.4196 	    9.8225 	    5.0000 	    3.0000 	   17.8066
    0.3586 	   10.1140 	    5.0000 	    3.0000 	   18.9727
    0.4501 	   10.3960 	    5.0000 	    3.0000 	   20.1008
    0.5264 	   10.6808 	    5.0000 	    3.0000 	   21.2398
    0.4654 	   10.9803 	    5.0000 	    3.0000 	   22.4379
    0.5570 	   11.2775 	    5.0000 	    3.0000 	   23.6270
    0.4807 	   11.5785 	    5.0000 	    3.0000 	   24.8310
    0.5570 	   11.8925 	    5.0000 	    3.0000 	   26.0871
    0.6332 	   12.1923 	    5.0000 	    3.0000 	   27.2852
    0.4349 	   12.4948 	    5.0000 	    3.0000 	   28.4953
    0.4807 	   12.8120 	    5.0000 	    3.0000 	   29.7643
    0.4196 	   13.1185 	    5.0000 	    3.0000 	   30.9904
    0.3433 	   13.4375 	    5.0000 	    3.0000 	   32.2665
    0.4654 	   13.7495 	    5.0000 	    3.0000 	   33.5145
    0.7095 	   14.0703 	    5.0000 	    3.0000 	   34.7976
    0.4501 	   14.3963 	    5.0000 	    3.0000 	   36.1017
    0.5875 	   14.7163 	    5.0000 	    3.0000 	   37.3818
    0.6027 	   15.0363 	    5.0000 	    3.0000 	   38.6618
    0.4959 	   15.3675 	    5.0000 	    3.0000 	   39.9869
    0.3891 	   15.6903 	    5.0000 	    3.0000 	   41.2780
    0.5570 	   16.0183 	    5.0000 	    3.0000 	   42.5901
    0.4654 	   16.3490 	    5.0000 	    3.0000 	   43.9131
    0.4654 	   16.6783 	    5.0000 	    3.0000 	   45.2292
    0.8011 	   17.0128 	    5.0000 	    3.0000 	   46.5673
    0.6485 	   17.3393 	    5.0000 	    3.0000 	   47.8734
    0.5570 	   17.6737 	    5.0000 	    3.0000 	   49.2114
    0.7401 	   18.0143 	    5.0000 	    3.0000 	   50.5735
    0.5112 	   18.3485 	    5.0000 	    3.0000 	   51.9106
    0.5570 	   18.6905 	    5.0000 	    3.0000 	   53.2787
    0.6332 	   19.0283 	    5.0000 	    3.0000 	   54.6297
    0.6180 	   19.3753 	    5.0000 	    3.0000 	   56.0178
    0.5417 	   19.7148 	    5.0000 	    3.0000 	   57.3759
    0.5722 	   20.0575 	    5.0000 	    3.0000 	   58.7470
    0.6485 	   20.3940 	    5.0000 	    4.0000 	    0.0931
    0.6638 	   20.7410 	    5.0000 	    4.0000 	    1.4811
    0.7095 	   21.0853 	    5.0000 	    4.0000 	    2.8572
    0.7401 	   21.4185 	    5.0000 	    4.0000 	    4.1903
    0.7553 	   21.7565 	    5.0000 	    4.0000 	    5.5424
    0.6485 	   22.1035 	    5.0000 	    4.0000 	    6.9305
    0.6638 	   22.4533 	    5.0000 	    4.0000 	    8.3295
    0.8621 	   22.8065 	    5.0000 	    4.0000 	    9.7426
    0.7401 	   23.1600 	    5.0000 	    4.0000 	   11.1567
    0.6790 	   23.5140 	    5.0000 	    4.0000 	   12.5728
    0.8011 	   23.8720 	    5.0000 	    4.0000 	   14.0049
    0.7095 	   24.2388 	    5.0000 	    4.0000 	   15.4719
    0.6790 	   24.5955 	    5.0000 	    4.0000 	   16.8990
    0.7248 	   24.9555 	    5.0000 	    4.0000 	   18.3391
    0.7858 	   25.3165 	    5.0000 	    4.0000 	   19.7822
    0.7401 	   25.6793 	    5.0000 	    4.0000 	   21.2333
    0.7858 	   26.0415 	    5.0000 	    4.0000 	   22.6824
    1.0910 	   26.4143 	    5.0000 	    4.0000 	   24.1734
    0.8316 	   26.7753 	    5.0000 	    4.0000 	   25.6175
    0.8774 	   27.1405 	    5.0000 	    4.0000 	   27.0786
    0.8927 	   27.5045 	    5.0000 	    4.0000 	   28.5347
    0.8011 	   27.8705 	    5.0000 	    4.0000 	   29.9988
    0.8469 	   28.2513 	    5.0000 	    4.0000 	   31.5219
    0.8927 	   28.6190 	    5.0000 	    4.0000 	   32.9929
    0.6485 	   29.0045 	    5.0000 	    4.0000 	   34.5350
    0.8621 	   29.3745 	    5.0000 	    4.0000 	   36.0151
    0.9079 	   29.7485 	    5.0000 	    4.0000 	   37.5102
    0.9995 	   30.1208 	    5.0000 	    4.0000 	   38.9993
    0.9079 	   30.4940 	    5.0000 	    4.0000 	   40.4924
    0.8164 	   30.8745 	    5.0000 	    4.0000 	   42.0145
    0.7095 	   31.2630 	    5.0000 	    4.0000 	   43.5686
    0.9079 	   31.6340 	    5.0000 	    4.0000 	   45.0526
    0.6332 	   32.0175 	    5.0000 	    4.0000 	   46.5867
    0.6790 	   32.3965 	    5.0000 	    4.0000 	   48.1028
    0.7858 	   32.7933 	    5.0000 	    4.0000 	   49.6899
    0.8927 	   33.1772 	    5.0000 	    4.0000 	   51.2260
    0.8164 	   33.5610 	    5.0000 	    4.0000 	   52.7611
    0.5112 	   33.9565 	    5.0000 	    4.0000 	   54.3432
    0.9232 	   34.3480 	    5.0000 	    4.0000 	   55.9083
    0.8316 	   34.7355 	    5.0000 	    4.0000 	   57.4583
    0.5875 	   35.1310 	    5.0000 	    4.0000 	   59.0404
    0.7553 	   35.5185 	    5.0000 	    5.0000 	    0.5905
    0.8316 	   35.9255 	    5.0000 	    5.0000 	    2.2186
    0.7095 	   36.3240 	    5.0000 	    5.0000 	    3.8127
    0.6332 	   36.7288 	    5.0000 	    5.0000 	    5.4318
    0.8316 	   37.1275 	    5.0000 	    5.0000 	    7.0269
    0.5570 	   37.5263 	    5.0000 	    5.0000 	    8.6220
    0.5417 	   37.9255 	    5.0000 	    5.0000 	   10.2191
    0.4807 	   38.3325 	    5.0000 	    5.0000 	   11.8472
    0.6943 	   38.7375 	    5.0000 	    5.0000 	   13.4663
    0.6180 	   39.1448 	    5.0000 	    5.0000 	   15.0954
    0.6638 	   39.5520 	    5.0000 	    5.0000 	   16.7244
    0.6332 	   39.9505 	    5.0000 	    5.0000 	   18.3185
    0.6790 	   40.3600 	    5.0000 	    5.0000 	   19.9566
    0.5264 	   40.7670 	    5.0000 	    5.0000 	   21.5847
    0.6943 	   41.1735 	    5.0000 	    5.0000 	   23.2108
    0.6027 	   41.5953 	    5.0000 	    5.0000 	   24.8979
    0.5417 	   42.0058 	    5.0000 	    5.0000 	   26.5400
    0.5264 	   42.4243 	    5.0000 	    5.0000 	   28.2141
    0.1450 	   42.8465 	    5.0000 	    5.0000 	   29.9022
    0.4196 	   43.2710 	    5.0000 	    5.0000 	   31.6003
    0.5417 	   43.6935 	    5.0000 	    5.0000 	   33.2904
    0.4349 	   44.1198 	    5.0000 	    5.0000 	   34.9955
    0.5112 	   44.5458 	    5.0000 	    5.0000 	   36.6996
    0.0687 	   44.9683 	    5.0000 	    5.0000 	   38.3897
    0.4349 	   45.3890 	    5.0000 	    5.0000 	   40.0728
    0.3281 	   45.8123 	    5.0000 	    5.0000 	   41.7659
    0.5264 	   46.2395 	    5.0000 	    5.0000 	   43.4750
    0.3891 	   46.6770 	    5.0000 	    5.0000 	   45.2251
    0.4501 	   47.1078 	    5.0000 	    5.0000 	   46.9482
    0.4807 	   47.5403 	    5.0000 	    5.0000 	   48.6773
    0.3433 	   47.9823 	    5.0000 	    5.0000 	   50.4454
    0.3891 	   48.4208 	    5.0000 	    5.0000 	   52.1995
    0.3281 	   48.8598 	    5.0000 	    5.0000 	   53.9556
    0.4501 	   49.3045 	    5.0000 	    5.0000 	   55.7347
    0.3281 	   49.7430 	    5.0000 	    5.0000 	   57.4888
    0.3128 	   50.1853 	    5.0000 	    5.0000 	   59.2579
    0.3128 	   50.6355 	    5.0000 	    6.0000 	    1.0590
    0.3738 	   51.0890 	    5.0000 	    6.0000 	    2.8731
    0.3281 	   51.5445 	    5.0000 	    6.0000 	    4.6942
    0.4196 	   52.0033 	    5.0000 	    6.0000 	    6.5293
    0.3128 	   52.4590 	    5.0000 	    6.0000 	    8.3524
    0.3586 	   52.9138 	    5.0000 	    6.0000 	   10.1715
    0.3738 	   53.3718 	    5.0000 	    6.0000 	   12.0036
    0.2060 	   53.8298 	    5.0000 	    6.0000 	   13.8357
    0.3128 	   54.2873 	    5.0000 	    6.0000 	   15.6658
    0.2518 	   54.7493 	    5.0000 	    6.0000 	   17.5139
    0.3281 	   55.2130 	    5.0000 	    6.0000 	   19.3690
    0.3281 	   55.6808 	    5.0000 	    6.0000 	   21.2401
    0.2365 	   56.1503 	    5.0000 	    6.0000 	   23.1172
    0.4349 	   56.6153 	    5.0000 	    6.0000 	   24.9774
    0.1907 	   57.0805 	    5.0000 	    6.0000 	   26.8385
    0.1297 	   57.5498 	    5.0000 	    6.0000 	   28.7156
    0.2365 	   58.0183 	    5.0000 	    6.0000 	   30.5897
    0.3281 	   58.4845 	    5.0000 	    6.0000 	   32.4548
    0.1755 	   58.9488 	    5.0000 	    6.0000 	   34.3119
    0.1602 	   59.4155 	    5.0000 	    6.0000 	   36.1790
    0.1144 	   59.8833 	    5.0000 	    6.0000 	   38.0491
    0.1602 	   60.3538 	    5.0000 	    6.0000 	   39.9312
    0.0534 	   60.5643 	    5.0000 	    6.0000 	   40.7733