File: instron/short_3W15L_drag30_spd15.txt
Thayer School of Engineering        Instron 4442 Mechanical Testing System
6/28/2018 5:07:25 AM

  Force (N)	Extension (mm)	Not Used	Not Used	Not Used	     Hour	    Minute	    Second
    0.1755 	    0.2570 	    5.0000 	    8.0000 	   18.8759
    0.3433 	    0.6653 	    5.0000 	    8.0000 	   20.5090
    0.1907 	    0.9825 	    5.0000 	    8.0000 	   21.7780
    0.1450 	    1.2388 	    5.0000 	    8.0000 	   22.8031
    0.2823 	    1.4835 	    5.0000 	    8.0000 	   23.7821
    0.0687 	    1.7370 	    5.0000 	    8.0000 	   24.7962
    0.2060 	    1.9925 	    5.0000 	    8.0000 	   25.8173
    0.2670 	    2.2380 	    5.0000 	    8.0000 	   26.7993
    0.4196 	    2.4848 	    5.0000 	    8.0000 	   27.7864
    0.2213 	    2.7308 	    5.0000 	    8.0000 	   28.7704
    0.3586 	    2.9928 	    5.0000 	    8.0000 	   29.8185
    0.3128 	    3.2523 	    5.0000 	    8.0000 	   30.8566
    0.2670 	    3.5005 	    5.0000 	    8.0000 	   31.8496
    0.4654 	    3.7618 	    5.0000 	    8.0000 	   32.8947
    0.4501 	    4.0250 	    5.0000 	    8.0000 	   33.9477
    0.4044 	    4.2900 	    5.0000 	    8.0000 	   35.0078
    0.2518 	    4.5578 	    5.0000 	    8.0000 	   36.0788
    0.3433 	    4.8280 	    5.0000 	    8.0000 	   37.1599
    0.4044 	    5.0938 	    5.0000 	    8.0000 	   38.2230
    0.3128 	    5.3673 	    5.0000 	    8.0000 	   39.3170
    0.3128 	    5.6400 	    5.0000 	    8.0000 	   40.4081
    0.2365 	    5.9103 	    5.0000 	    8.0000 	   41.4892
    0.3586 	    6.1883 	    5.0000 	    8.0000 	   42.6012
   -0.0381 	    6.4603 	    5.0000 	    8.0000 	   43.6883
    0.4196 	    6.7395 	    5.0000 	    8.0000 	   44.8053
    0.3586 	    7.0260 	    5.0000 	    8.0000 	   45.9514
    0.3433 	    7.3108 	    5.0000 	    8.0000 	   47.0905
    0.5112 	    7.5955 	    5.0000 	    8.0000 	   48.2295
    0.4349 	    7.8888 	    5.0000 	    8.0000 	   49.4026
    0.4501 	    8.1753 	    5.0000 	    8.0000 	   50.5487
    0.4501 	    8.4700 	    5.0000 	    8.0000 	   51.7277
    0.4044 	    8.7668 	    5.0000 	    8.0000 	   52.9148
    0.4196 	    9.0613 	    5.0000 	    8.0000 	   54.0929
    0.4501 	    9.3535 	    5.0000 	    8.0000 	   55.2619
    0.5417 	    9.6518 	    5.0000 	    8.0000 	   56.4550
    0.4654 	    9.9410 	    5.0000 	    8.0000 	   57.6121
    0.4959 	   10.2380 	    5.0000 	    8.0000 	   58.8001
    0.6180 	   10.5318 	    5.0000 	    8.0000 	   59.9752
    0.4959 	   10.8223 	    5.0000 	    9.0000 	    1.1363
    0.4349 	   11.1088 	    5.0000 	    9.0000 	    2.2823
    0.5875 	   11.4093 	    5.0000 	    9.0000 	    3.4844
    0.4959 	   11.7180 	    5.0000 	    9.0000 	    4.7195
    0.3281 	   12.0220 	    5.0000 	    9.0000 	    5.9356
    0.5112 	   12.3203 	    5.0000 	    9.0000 	    7.1286
    0.6790 	   12.6185 	    5.0000 	    9.0000 	    8.3217
    0.5875 	   12.9300 	    5.0000 	    9.0000 	    9.5678
    0.4959 	   13.2453 	    5.0000 	    9.0000 	   10.8278
    0.5722 	   13.5673 	    5.0000 	    9.0000 	   12.1169
    0.7095 	   13.8873 	    5.0000 	    9.0000 	   13.3970
    0.6180 	   14.2095 	    5.0000 	    9.0000 	   14.6861
    0.5875 	   14.5298 	    5.0000 	    9.0000 	   15.9671
    0.5264 	   14.8438 	    5.0000 	    9.0000 	   17.2232
    0.5417 	   15.1625 	    5.0000 	    9.0000 	   18.4973
    0.7858 	   15.4823 	    5.0000 	    9.0000 	   19.7763
    0.5722 	   15.8178 	    5.0000 	    9.0000 	   21.1184
    0.7858 	   16.1357 	    5.0000 	    9.0000 	   22.3905
    0.7248 	   16.4463 	    5.0000 	    9.0000 	   23.6326
    0.3281 	   16.7865 	    5.0000 	    9.0000 	   24.9936
    0.7401 	   17.1220 	    5.0000 	    9.0000 	   26.3357
    0.6332 	   17.4488 	    5.0000 	    9.0000 	   27.6428
    0.6485 	   17.7738 	    5.0000 	    9.0000 	   28.9429
    0.6790 	   18.1108 	    5.0000 	    9.0000 	   30.2909
    0.6485 	   18.4438 	    5.0000 	    9.0000 	   31.6230
    0.8164 	   18.7895 	    5.0000 	    9.0000 	   33.0061
    0.7248 	   19.1313 	    5.0000 	    9.0000 	   34.3732
    0.7248 	   19.4730 	    5.0000 	    9.0000 	   35.7393
    0.7553 	   19.8155 	    5.0000 	    9.0000 	   37.1093
    0.7401 	   20.1573 	    5.0000 	    9.0000 	   38.4764
    0.6638 	   20.4970 	    5.0000 	    9.0000 	   39.8355
    0.7401 	   20.8440 	    5.0000 	    9.0000 	   41.2236
    0.5112 	   21.1853 	    5.0000 	    9.0000 	   42.5887
    0.9232 	   21.5445 	    5.0000 	    9.0000 	   44.0257
    0.7095 	   21.8918 	    5.0000 	    9.0000 	   45.4148
    0.7553 	   22.2348 	    5.0000 	    9.0000 	   46.7869
    0.8164 	   22.5748 	    5.0000 	    9.0000 	   48.1470
    0.8621 	   22.9185 	    5.0000 	    9.0000 	   49.5220
    0.5112 	   23.2705 	    5.0000 	    9.0000 	   50.9301
    0.7553 	   23.6205 	    5.0000 	    9.0000 	   52.3302
    0.8927 	   23.9663 	    5.0000 	    9.0000 	   53.7123
    0.8774 	   24.3130 	    5.0000 	    9.0000 	   55.0994
    0.7706 	   24.6748 	    5.0000 	    9.0000 	   56.5465
    0.8774 	   25.0300 	    5.0000 	    9.0000 	   57.9675
    0.8469 	   25.3855 	    5.0000 	    9.0000 	   59.3896
    0.9232 	   25.7448 	    5.0000 	   10.0000 	    0.8267
    0.7553 	   26.1078 	    5.0000 	   10.0000 	    2.2788
    0.6027 	   26.4678 	    5.0000 	   10.0000 	    3.7189
    0.8316 	   26.8328 	    5.0000 	   10.0000 	    5.1789
    0.9842 	   27.1928 	    5.0000 	   10.0000 	    6.6190
    0.8621 	   27.5693 	    5.0000 	   10.0000 	    8.1251
    1.0147 	   27.9283 	    5.0000 	   10.0000 	    9.5612
    0.8164 	   28.2940 	    5.0000 	   10.0000 	   11.0233
    1.0605 	   28.6625 	    5.0000 	   10.0000 	   12.4974
    0.9537 	   29.0158 	    5.0000 	   10.0000 	   13.9104
    0.9384 	   29.3818 	    5.0000 	   10.0000 	   15.3745
    1.0605 	   29.7543 	    5.0000 	   10.0000 	   16.8646
    1.1673 	   30.1220 	    5.0000 	   10.0000 	   18.3357
    0.8621 	   30.4893 	    5.0000 	   10.0000 	   19.8048
    0.9842 	   30.8650 	    5.0000 	   10.0000 	   21.3079
    0.8927 	   31.2355 	    5.0000 	   10.0000 	   22.7900
    0.9384 	   31.6088 	    5.0000 	   10.0000 	   24.2830
    0.8164 	   31.9848 	    5.0000 	   10.0000 	   25.7871
    1.0605 	   32.3620 	    5.0000 	   10.0000 	   27.2962
    0.9842 	   32.7390 	    5.0000 	   10.0000 	   28.8033
    0.8927 	   33.1223 	    5.0000 	   10.0000 	   30.3364
    0.9689 	   33.5033 	    5.0000 	   10.0000 	   31.8605
    0.8011 	   33.8895 	    5.0000 	   10.0000 	   33.4056
    0.8621 	   34.2668 	    5.0000 	   10.0000 	   34.9146
    0.8469 	   34.6578 	    5.0000 	   10.0000 	   36.4787
    0.8316 	   35.0413 	    5.0000 	   10.0000 	   38.0128
    0.9232 	   35.4295 	    5.0000 	   10.0000 	   39.5659
    0.6027 	   35.8170 	    5.0000 	   10.0000 	   41.1160
    0.8011 	   36.2040 	    5.0000 	   10.0000 	   42.6641
    0.9689 	   36.5973 	    5.0000 	   10.0000 	   44.2362
    0.4807 	   36.9833 	    5.0000 	   10.0000 	   45.7803
    0.7858 	   37.3738 	    5.0000 	   10.0000 	   47.3424
    0.7248 	   37.7638 	    5.0000 	   10.0000 	   48.9024
    0.6790 	   38.1678 	    5.0000 	   10.0000 	   50.5185
    0.6485 	   38.5648 	    5.0000 	   10.0000 	   52.1066
    0.6485 	   38.9715 	    5.0000 	   10.0000 	   53.7337
    0.7401 	   39.3778 	    5.0000 	   10.0000 	   55.3588
    0.6943 	   39.7780 	    5.0000 	   10.0000 	   56.9599
    0.5875 	   40.1880 	    5.0000 	   10.0000 	   58.6000
    0.3891 	   40.5940 	    5.0000 	   11.0000 	    0.2241
    0.3738 	   41.0053 	    5.0000 	   11.0000 	    1.8692
    0.2823 	   41.4205 	    5.0000 	   11.0000 	    3.5293
    0.5570 	   41.8348 	    5.0000 	   11.0000 	    5.1864
    0.6180 	   42.2430 	    5.0000 	   11.0000 	    6.8195
    0.6332 	   42.6483 	    5.0000 	   11.0000 	    8.4406
    0.5264 	   43.0685 	    5.0000 	   11.0000 	   10.1217
    0.5417 	   43.4833 	    5.0000 	   11.0000 	   11.7808
    0.5570 	   43.9000 	    5.0000 	   11.0000 	   13.4478
    0.4654 	   44.3178 	    5.0000 	   11.0000 	   15.1189
    0.4959 	   44.7315 	    5.0000 	   11.0000 	   16.7740
    0.6180 	   45.1623 	    5.0000 	   11.0000 	   18.4971
    0.6180 	   45.5838 	    5.0000 	   11.0000 	   20.1832
    0.6027 	   46.0043 	    5.0000 	   11.0000 	   21.8643
    0.4959 	   46.4388 	    5.0000 	   11.0000 	   23.6024
    0.3586 	   46.8658 	    5.0000 	   11.0000 	   25.3105
    0.4044 	   47.3010 	    5.0000 	   11.0000 	   27.0516
    0.4501 	   47.7290 	    5.0000 	   11.0000 	   28.7637
    0.3128 	   48.1588 	    5.0000 	   11.0000 	   30.4828
    0.5722 	   48.5945 	    5.0000 	   11.0000 	   32.2259
    0.3128 	   49.0350 	    5.0000 	   11.0000 	   33.9880
    0.4044 	   49.4740 	    5.0000 	   11.0000 	   35.7441
    0.1297 	   49.9155 	    5.0000 	   11.0000 	   37.5102
    0.4044 	   50.3540 	    5.0000 	   11.0000 	   39.2633
    0.3433 	   50.7993 	    5.0000 	   11.0000 	   41.0444
    0.2823 	   51.2540 	    5.0000 	   11.0000 	   42.8635
    0.3128 	   51.6885 	    5.0000 	   11.0000 	   44.6016
    0.2365 	   52.1330 	    5.0000 	   11.0000 	   46.3797
    0.2365 	   52.5778 	    5.0000 	   11.0000 	   48.1588
    0.3738 	   53.0335 	    5.0000 	   11.0000 	   49.9819
    0.2670 	   53.4870 	    5.0000 	   11.0000 	   51.7960
    0.1755 	   53.9368 	    5.0000 	   11.0000 	   53.5951
    0.1755 	   54.3908 	    5.0000 	   11.0000 	   55.4113
    0.1602 	   54.8528 	    5.0000 	   11.0000 	   57.2584
    0.2518 	   55.3058 	    5.0000 	   11.0000 	   59.0705
    0.1297 	   55.7625 	    5.0000 	   12.0000 	    0.8976
    0.1907 	   56.2193 	    5.0000 	   12.0000 	    2.7247
    0.3433 	   56.6745 	    5.0000 	   12.0000 	    4.5458
   -0.1450 	   57.1345 	    5.0000 	   12.0000 	    6.3859
    0.1907 	   57.5898 	    5.0000 	   12.0000 	    8.2070
    0.0229 	   58.0483 	    5.0000 	   12.0000 	   10.0411
    0.3281 	   58.5110 	    5.0000 	   12.0000 	   11.8922
    0.1755 	   58.9690 	    5.0000 	   12.0000 	   13.7233
    0.2213 	   59.4310 	    5.0000 	   12.0000 	   15.5714
    0.1297 	   59.8908 	    5.0000 	   12.0000 	   17.4105
    0.3281 	   60.3588 	    5.0000 	   12.0000 	   19.2816