File: instron/independence/relaxation/bad_l15w3_40_30_pre10/b_l15w3_40_40_pre10_step.txt
Thayer School of Engineering        Instron 4442 Mechanical Testing System
7/5/2018 5:51:10 AM

  Force (N)	Extension (mm)	Not Used	Not Used	Not Used	     Hour	    Minute	    Second
    1.1368 	    0.6887 	    5.0000 	   51.0000 	   50.8962
    0.9384 	    1.6353 	    5.0000 	   51.0000 	   52.3163
    1.0605 	    2.4220 	    5.0000 	   51.0000 	   53.4963
    1.1063 	    3.0147 	    5.0000 	   51.0000 	   54.3854
    1.0300 	    3.5800 	    5.0000 	   51.0000 	   55.2334
    1.1673 	    4.1480 	    5.0000 	   51.0000 	   56.0855
    1.0758 	    4.7093 	    5.0000 	   51.0000 	   56.9275
    1.1521 	    5.2880 	    5.0000 	   51.0000 	   57.7956
    1.1978 	    5.8580 	    5.0000 	   51.0000 	   58.6506
    1.3199 	    6.4280 	    5.0000 	   51.0000 	   59.5057
    1.2741 	    6.9940 	    5.0000 	   52.0000 	    0.3547
    1.3504 	    7.5573 	    5.0000 	   52.0000 	    1.1998
    1.5488 	    8.1280 	    5.0000 	   52.0000 	    2.0558
    1.4420 	    8.7000 	    5.0000 	   52.0000 	    2.9139
    1.2436 	    9.2773 	    5.0000 	   52.0000 	    3.7799
    1.5030 	    9.8660 	    5.0000 	   52.0000 	    4.6630
    1.3809 	   10.4593 	    5.0000 	   52.0000 	    5.5530
    1.5640 	   11.0560 	    5.0000 	   52.0000 	    6.4481
    1.6098 	   11.6593 	    5.0000 	   52.0000 	    7.3531
    1.5946 	   12.2627 	    5.0000 	   52.0000 	    8.2572
    1.8387 	   12.8487 	    5.0000 	   52.0000 	    9.1362
    1.8082 	   13.4707 	    5.0000 	   52.0000 	   10.0693
    1.7319 	   14.0640 	    5.0000 	   52.0000 	   10.9593
    1.9455 	   14.6693 	    5.0000 	   52.0000 	   11.8674
    1.8387 	   15.2747 	    5.0000 	   52.0000 	   12.7754
    1.8540 	   15.8807 	    5.0000 	   52.0000 	   13.6845
    1.9913 	   16.4807 	    5.0000 	   52.0000 	   14.5845
    2.0523 	   17.0853 	    5.0000 	   52.0000 	   15.4916
    2.1592 	   17.6713 	    5.0000 	   52.0000 	   16.3706
    2.2965 	   18.2600 	    5.0000 	   52.0000 	   17.2537
    2.2507 	   18.8527 	    5.0000 	   52.0000 	   18.1427
    2.2965 	   19.4560 	    5.0000 	   52.0000 	   19.0478
    2.3575 	   20.0727 	    5.0000 	   52.0000 	   19.9728
    2.5559 	   20.6907 	    5.0000 	   52.0000 	   20.8999
    2.6474 	   21.3280 	    5.0000 	   52.0000 	   21.8559
    2.6169 	   21.9600 	    5.0000 	   52.0000 	   22.8040
    2.8763 	   22.5373 	    5.0000 	   52.0000 	   23.6700
    2.8305 	   23.1280 	    5.0000 	   52.0000 	   24.5561
    2.8611 	   23.7700 	    5.0000 	   52.0000 	   25.5182
    2.9831 	   24.3907 	    5.0000 	   52.0000 	   26.4492
    3.1968 	   25.0160 	    5.0000 	   52.0000 	   27.3873
    3.3341 	   25.6513 	    5.0000 	   52.0000 	   28.3403
    3.3646 	   26.2647 	    5.0000 	   52.0000 	   29.2604
    3.4257 	   26.8627 	    5.0000 	   52.0000 	   30.1574
    3.6088 	   27.4800 	    5.0000 	   52.0000 	   31.0835
    3.5782 	   28.0773 	    5.0000 	   52.0000 	   31.9795
    3.9139 	   28.7093 	    5.0000 	   52.0000 	   32.9276
    3.8529 	   29.3527 	    5.0000 	   52.0000 	   33.8926
    3.9597 	   30.0000 	    5.0000 	   52.0000 	   34.8637
    4.1123 	   30.6053 	    5.0000 	   52.0000 	   35.7717
    4.3717 	   31.2107 	    5.0000 	   52.0000 	   36.6798
    4.2802 	   31.8460 	    5.0000 	   52.0000 	   37.6328
    4.4480 	   32.4800 	    5.0000 	   52.0000 	   38.5839
    4.5853 	   33.1060 	    5.0000 	   52.0000 	   39.5230
    4.5548 	   33.7327 	    5.0000 	   52.0000 	   40.4630
    4.9058 	   34.3727 	    5.0000 	   52.0000 	   41.4231
    5.2262 	   35.0167 	    5.0000 	   52.0000 	   42.3891
    5.2415 	   35.6473 	    5.0000 	   52.0000 	   43.3342
    5.4093 	   36.3260 	    5.0000 	   52.0000 	   44.3522
    5.5772 	   36.9893 	    5.0000 	   52.0000 	   45.3473
    5.5619 	   37.6353 	    5.0000 	   52.0000 	   46.3163
    5.6992 	   38.2553 	    5.0000 	   52.0000 	   47.2464
    5.9434 	   38.8960 	    5.0000 	   52.0000 	   48.2075
    6.1112 	   39.5507 	    5.0000 	   52.0000 	   49.1895
    5.9434 	   40.2140 	    5.0000 	   52.0000 	   50.1846
    5.6382 	   40.8667 	    5.0000 	   52.0000 	   51.1636
    5.7298 	   41.5140 	    5.0000 	   52.0000 	   52.1347
    5.5009 	   42.1940 	    5.0000 	   52.0000 	   53.1547
    5.5009 	   42.8740 	    5.0000 	   52.0000 	   54.1748
    5.5161 	   43.5407 	    5.0000 	   52.0000 	   55.1749
    5.6229 	   44.2253 	    5.0000 	   52.0000 	   56.2019
    5.6229 	   44.9040 	    5.0000 	   52.0000 	   57.2200
    5.5772 	   45.5960 	    5.0000 	   52.0000 	   58.2580
    5.4551 	   46.2613 	    5.0000 	   52.0000 	   59.2561
    5.3941 	   46.9540 	    5.0000 	   53.0000 	    0.2941
    5.3941 	   47.6433 	    5.0000 	   53.0000 	    1.3282
    5.3635 	   48.3253 	    5.0000 	   53.0000 	    2.3513
    5.3635 	   49.0187 	    5.0000 	   53.0000 	    3.3913
    5.4856 	   49.7000 	    5.0000 	   53.0000 	    4.4134
    5.3635 	   50.4280 	    5.0000 	   53.0000 	    5.5054
    5.4246 	   51.1520 	    5.0000 	   53.0000 	    6.5915
    5.3025 	   51.8573 	    5.0000 	   53.0000 	    7.6496
    5.4551 	   52.5700 	    5.0000 	   53.0000 	    8.7186
    5.2873 	   53.2993 	    5.0000 	   53.0000 	    9.8127
    5.3330 	   54.0107 	    5.0000 	   53.0000 	   10.8797
    5.3941 	   54.7460 	    5.0000 	   53.0000 	   11.9828
    5.1347 	   55.4373 	    5.0000 	   53.0000 	   13.0199
    5.3788 	   56.1693 	    5.0000 	   53.0000 	   14.1179
    5.1499 	   56.8620 	    5.0000 	   53.0000 	   15.1570
    5.3483 	   57.5607 	    5.0000 	   53.0000 	   16.2051
    5.2415 	   58.2627 	    5.0000 	   53.0000 	   17.2581
    5.1652 	   58.9847 	    5.0000 	   53.0000 	   18.3402
    5.2415 	   59.6980 	    5.0000 	   53.0000 	   19.4102
    5.1499 	   60.4180 	    5.0000 	   53.0000 	   20.4903
    5.1652 	   61.1433 	    5.0000 	   53.0000 	   21.5784
    5.1652 	   61.9100 	    5.0000 	   53.0000 	   22.7284
    5.2110 	   62.6660 	    5.0000 	   53.0000 	   23.8625
    5.2567 	   63.4280 	    5.0000 	   53.0000 	   25.0056
    5.2567 	   64.1740 	    5.0000 	   53.0000 	   26.1246
    5.0278 	   64.9393 	    5.0000 	   53.0000 	   27.2727
    5.0431 	   65.6973 	    5.0000 	   53.0000 	   28.4098
    5.1804 	   66.4487 	    5.0000 	   53.0000 	   29.5368
    5.2262 	   67.2113 	    5.0000 	   53.0000 	   30.6809
    5.1804 	   67.9593 	    5.0000 	   53.0000 	   31.8029
    5.1194 	   68.6987 	    5.0000 	   53.0000 	   32.9120
    5.0278 	   69.4627 	    5.0000 	   53.0000 	   34.0581
    5.3330 	   70.2247 	    5.0000 	   53.0000 	   35.2011
    5.0584 	   70.9953 	    5.0000 	   53.0000 	   36.3562
    5.3330 	   71.7740 	    5.0000 	   53.0000 	   37.5243
    5.1499 	   72.5360 	    5.0000 	   53.0000 	   38.6673
    5.1194 	   73.3067 	    5.0000 	   53.0000 	   39.8234
    5.1041 	   74.0920 	    5.0000 	   53.0000 	   41.0015
    5.1194 	   74.8653 	    5.0000 	   53.0000 	   42.1615
    5.0736 	   75.6833 	    5.0000 	   53.0000 	   43.3886
    5.1041 	   76.4720 	    5.0000 	   53.0000 	   44.5717
    5.0889 	   77.2640 	    5.0000 	   53.0000 	   45.7597
    5.1194 	   78.0707 	    5.0000 	   53.0000 	   46.9698
    5.2110 	   78.8513 	    5.0000 	   53.0000 	   48.1409
    5.0736 	   79.6540 	    5.0000 	   53.0000 	   49.3450
    5.1194 	   80.4167 	    5.0000 	   53.0000 	   50.4890
    4.5396 	   81.1773 	    5.0000 	   53.0000 	   51.6301
    3.7461 	   81.9540 	    5.0000 	   53.0000 	   52.7941
    3.5477 	   82.7500 	    5.0000 	   53.0000 	   53.9882
    3.3951 	   83.5520 	    5.0000 	   53.0000 	   55.1913
    3.1052 	   84.3460 	    5.0000 	   53.0000 	   56.3824
    2.9679 	   85.1380 	    5.0000 	   53.0000 	   57.5704
    2.7085 	   85.9560 	    5.0000 	   53.0000 	   58.7975
    2.3728 	   86.7787 	    5.0000 	   54.0000 	    0.0316
    2.0829 	   87.6020 	    5.0000 	   54.0000 	    1.2666
    2.3880 	   88.4207 	    5.0000 	   54.0000 	    2.4947
    2.1592 	   89.2120 	    5.0000 	   54.0000 	    3.6818
    2.0981 	   90.0300 	    5.0000 	   54.0000 	    4.9088
    1.8387 	   90.8507 	    5.0000 	   54.0000 	    6.1399
    1.8082 	   91.6507 	    5.0000 	   54.0000 	    7.3400
    1.7319 	   92.4673 	    5.0000 	   54.0000 	    8.5650
    1.7166 	   93.2940 	    5.0000 	   54.0000 	    9.8051
    1.6861 	   94.1413 	    5.0000 	   54.0000 	   11.0752
    1.5946 	   94.9613 	    5.0000 	   54.0000 	   12.3053
    1.4267 	   95.8153 	    5.0000 	   54.0000 	   13.5863
    1.4572 	   96.6487 	    5.0000 	   54.0000 	   14.8364
    1.3962 	   97.4613 	    5.0000 	   54.0000 	   16.0555
    1.2894 	   98.2980 	    5.0000 	   54.0000 	   17.3106
    1.3962 	   99.1307 	    5.0000 	   54.0000 	   18.5596
    1.3504 	   99.9660 	    5.0000 	   54.0000 	   19.8127
    1.3504 	  100.8113 	    5.0000 	   54.0000 	   21.0808
    1.2436 	  101.6687 	    5.0000 	   54.0000 	   22.3668
    1.0452 	  102.5053 	    5.0000 	   54.0000 	   23.6219
    1.0605 	  103.3433 	    5.0000 	   54.0000 	   24.8790
    1.1673 	  104.1893 	    5.0000 	   54.0000 	   26.1481
    1.1063 	  105.0167 	    5.0000 	   54.0000 	   27.3891
    0.6943 	  105.8533 	    5.0000 	   54.0000 	   28.6432
    1.0452 	  106.7327 	    5.0000 	   54.0000 	   29.9623
    1.0300 	  107.6220 	    5.0000 	   54.0000 	   31.2963
    0.9842 	  108.4807 	    5.0000 	   54.0000 	   32.5844
    0.6485 	  109.3280 	    5.0000 	   54.0000 	   33.8555
    0.8927 	  110.2100 	    5.0000 	   54.0000 	   35.1786
    1.0147 	  111.0733 	    5.0000 	   54.0000 	   36.4736
    0.8621 	  111.9680 	    5.0000 	   54.0000 	   37.8157
    0.8774 	  112.8553 	    5.0000 	   54.0000 	   39.1468
    0.9384 	  113.7433 	    5.0000 	   54.0000 	   40.4789
    0.7706 	  114.6107 	    5.0000 	   54.0000 	   41.7799
    0.8621 	  115.4947 	    5.0000 	   54.0000 	   43.1060
    0.9689 	  116.3900 	    5.0000 	   54.0000 	   44.4491
    0.7553 	  117.2693 	    5.0000 	   54.0000 	   45.7672
    0.6180 	  118.1787 	    5.0000 	   54.0000 	   47.1313
    0.7553 	  119.0860 	    5.0000 	   54.0000 	   48.4923
    0.6332 	  120.0000 	    5.0000 	   54.0000 	   49.8634
    0.6638 	  120.8967 	    5.0000 	   54.0000 	   51.2085
    0.6180 	  121.3067 	    5.0000 	   54.0000 	   51.8235