File: instron/independence/relaxation/bad_l15w3_40_30_pre10/b_l15w3_40_30_stop1min_pre10_force.txt
Thayer School of Engineering        Instron 4442 Mechanical Testing System
7/5/2018 1:45:55 AM

  Force (N)	Extension (mm)	Not Used	Not Used	Not Used	     Hour	    Minute	    Second
    0.5264 	    0.5095 	    1.0000 	   46.0000 	   31.2023
    0.5722 	    1.1040 	    1.0000 	   46.0000 	   32.3913
    0.2976 	    1.6930 	    1.0000 	   46.0000 	   33.5694
    0.5417 	    2.1310 	    1.0000 	   46.0000 	   34.4454
    0.6180 	    2.5475 	    1.0000 	   46.0000 	   35.2785
    0.6027 	    2.9665 	    1.0000 	   46.0000 	   36.1165
    0.6638 	    3.3670 	    1.0000 	   46.0000 	   36.9176
    0.7553 	    3.7750 	    1.0000 	   46.0000 	   37.7336
    0.5570 	    4.1820 	    1.0000 	   46.0000 	   38.5477
    0.5570 	    4.5885 	    1.0000 	   46.0000 	   39.3607
    0.7553 	    5.0080 	    1.0000 	   46.0000 	   40.1998
    0.6790 	    5.4305 	    1.0000 	   46.0000 	   41.0448
    0.6943 	    5.8550 	    1.0000 	   46.0000 	   41.8939
    0.5417 	    6.2765 	    1.0000 	   46.0000 	   42.7359
    0.6943 	    6.6980 	    1.0000 	   46.0000 	   43.5790
    0.7706 	    7.1150 	    1.0000 	   46.0000 	   44.4130
    0.6943 	    7.5535 	    1.0000 	   46.0000 	   45.2901
    0.7248 	    7.9845 	    1.0000 	   46.0000 	   46.1521
    0.7095 	    8.4230 	    1.0000 	   46.0000 	   47.0292
    0.9232 	    8.8600 	    1.0000 	   46.0000 	   47.9032
    0.8164 	    9.3080 	    1.0000 	   46.0000 	   48.7993
    0.8164 	    9.7465 	    1.0000 	   46.0000 	   49.6763
    0.7401 	   10.1910 	    1.0000 	   46.0000 	   50.5654
    0.8011 	   10.6245 	    1.0000 	   46.0000 	   51.4324
    0.8927 	   11.0325 	    1.0000 	   46.0000 	   52.2485
    0.8469 	   11.4435 	    1.0000 	   46.0000 	   53.0705
    0.7248 	   11.8690 	    1.0000 	   46.0000 	   53.9216
    0.9384 	   12.3280 	    1.0000 	   46.0000 	   54.8396
    0.9384 	   12.7725 	    1.0000 	   46.0000 	   55.7287
    0.9384 	   13.2035 	    1.0000 	   46.0000 	   56.5907
    0.9842 	   13.6460 	    1.0000 	   46.0000 	   57.4758
    1.0758 	   14.0620 	    1.0000 	   46.0000 	   58.3078
    1.0452 	   14.5010 	    1.0000 	   46.0000 	   59.1859
    1.0452 	   14.9410 	    1.0000 	   47.0000 	    0.0649
    1.0452 	   15.4025 	    1.0000 	   47.0000 	    0.9880
    1.2436 	   15.8710 	    1.0000 	   47.0000 	    1.9250
    1.0910 	   16.3385 	    1.0000 	   47.0000 	    2.8601
    1.0605 	   16.7890 	    1.0000 	   47.0000 	    3.7611
    1.1673 	   17.2620 	    1.0000 	   47.0000 	    4.7072
    1.1521 	   17.7260 	    1.0000 	   47.0000 	    5.6352
    1.3352 	   18.2000 	    1.0000 	   47.0000 	    6.5833
    1.2284 	   18.6750 	    1.0000 	   47.0000 	    7.5333
    1.3046 	   19.1565 	    1.0000 	   47.0000 	    8.4964
    1.1978 	   19.6445 	    1.0000 	   47.0000 	    9.4724
    1.3046 	   20.1295 	    1.0000 	   47.0000 	   10.4425
    1.2436 	   20.6080 	    1.0000 	   47.0000 	   11.3996
    1.1978 	   21.0700 	    1.0000 	   47.0000 	   12.3236
    1.2436 	   21.5550 	    1.0000 	   47.0000 	   13.2937
    1.1521 	   22.0090 	    1.0000 	   47.0000 	   14.2017
    1.2284 	   22.4760 	    1.0000 	   47.0000 	   15.1358
    1.1673 	   22.9440 	    1.0000 	   47.0000 	   16.0718
    1.1978 	   23.4175 	    1.0000 	   47.0000 	   17.0189
    1.3504 	   23.8990 	    1.0000 	   47.0000 	   17.9809
    1.0452 	   24.3800 	    1.0000 	   47.0000 	   18.9430
    1.2741 	   24.8460 	    1.0000 	   47.0000 	   19.8750
    1.3199 	   25.3180 	    1.0000 	   47.0000 	   20.8191
    1.2741 	   25.7925 	    1.0000 	   47.0000 	   21.7681
    1.1521 	   26.2930 	    1.0000 	   47.0000 	   22.7692
    1.3046 	   26.7955 	    1.0000 	   47.0000 	   23.7743
    1.1673 	   27.2975 	    1.0000 	   47.0000 	   24.7783
    1.3809 	   27.7960 	    1.0000 	   47.0000 	   25.7754
    1.2284 	   28.3180 	    1.0000 	   47.0000 	   26.8194
    1.3504 	   28.8375 	    1.0000 	   47.0000 	   27.8585
    1.2589 	   29.3330 	    1.0000 	   47.0000 	   28.8496
    1.4115 	   29.8525 	    1.0000 	   47.0000 	   29.8886
    1.2284 	   30.3775 	    1.0000 	   47.0000 	   30.9387
    1.2436 	   30.9045 	    1.0000 	   47.0000 	   31.9927
    1.2436 	   31.4215 	    1.0000 	   47.0000 	   33.0268
    1.1673 	   31.9495 	    1.0000 	   47.0000 	   34.0829
    1.1826 	   32.4490 	    1.0000 	   47.0000 	   35.0809
    1.1215 	   32.9825 	    1.0000 	   47.0000 	   36.1480
    0.8774 	   33.5115 	    1.0000 	   47.0000 	   37.2060
    1.2131 	   34.0065 	    1.0000 	   47.0000 	   38.1961
    1.2894 	   34.5330 	    1.0000 	   47.0000 	   39.2491
    1.2284 	   35.0620 	    1.0000 	   47.0000 	   40.3072
    0.9842 	   35.5690 	    1.0000 	   47.0000 	   41.3213
    0.8621 	   36.0950 	    1.0000 	   47.0000 	   42.3733
    1.2741 	   36.6140 	    1.0000 	   47.0000 	   43.4114
    1.1215 	   37.1235 	    1.0000 	   47.0000 	   44.4304
    1.1521 	   37.6470 	    1.0000 	   47.0000 	   45.4775
    1.2436 	   38.1605 	    1.0000 	   47.0000 	   46.5046
    1.2589 	   38.6965 	    1.0000 	   47.0000 	   47.5766
    1.2741 	   39.2415 	    1.0000 	   47.0000 	   48.6667
    1.1063 	   39.7605 	    1.0000 	   47.0000 	   49.7047
    1.3046 	   40.3285 	    1.0000 	   47.0000 	   50.8408
    1.0605 	   40.8590 	    1.0000 	   47.0000 	   51.9019
    1.1673 	   41.4065 	    1.0000 	   47.0000 	   52.9959
    1.1826 	   41.9420 	    1.0000 	   47.0000 	   54.0670
    1.1673 	   42.5065 	    1.0000 	   47.0000 	   55.1961
    1.4115 	   43.0515 	    1.0000 	   47.0000 	   56.2861
    1.1978 	   43.6065 	    1.0000 	   47.0000 	   57.3962
    1.3352 	   44.1510 	    1.0000 	   47.0000 	   58.4852
    1.1978 	   44.6915 	    1.0000 	   47.0000 	   59.5663
    1.1063 	   45.2450 	    1.0000 	   48.0000 	    0.6734
    1.3046 	   45.8015 	    1.0000 	   48.0000 	    1.7864
    0.9995 	   46.3580 	    1.0000 	   48.0000 	    2.8995
    1.1521 	   46.9195 	    1.0000 	   48.0000 	    4.0226
    1.3657 	   47.4740 	    1.0000 	   48.0000 	    5.1316
    1.1215 	   48.0285 	    1.0000 	   48.0000 	    6.2407
    1.1673 	   48.6265 	    1.0000 	   48.0000 	    7.4368
    1.2436 	   49.1925 	    1.0000 	   48.0000 	    8.5688
    1.1826 	   49.7590 	    1.0000 	   48.0000 	    9.7019
    1.3352 	   50.3425 	    1.0000 	   48.0000 	   10.8680
    1.3809 	   50.9075 	    1.0000 	   48.0000 	   11.9980
    1.1063 	   51.4930 	    1.0000 	   48.0000 	   13.1691
    1.2284 	   52.0635 	    1.0000 	   48.0000 	   14.3102
    0.9995 	   52.6465 	    1.0000 	   48.0000 	   15.4762
    1.1063 	   53.2285 	    1.0000 	   48.0000 	   16.6403
    0.8469 	   53.7935 	    1.0000 	   48.0000 	   17.7704
    0.9079 	   54.3905 	    1.0000 	   48.0000 	   18.9644
    0.6943 	   54.9735 	    1.0000 	   48.0000 	   20.1305
    0.9232 	   55.5590 	    1.0000 	   48.0000 	   21.3016
    0.9079 	   56.1580 	    1.0000 	   48.0000 	   22.4996
    0.9232 	   56.7445 	    1.0000 	   48.0000 	   23.6727
    0.7858 	   57.3585 	    1.0000 	   48.0000 	   24.9008
    0.9842 	   57.9435 	    1.0000 	   48.0000 	   26.0708
    0.8011 	   58.5540 	    1.0000 	   48.0000 	   27.2919
    0.8927 	   59.1380 	    1.0000 	   48.0000 	   28.4590
    0.7248 	   59.7225 	    1.0000 	   48.0000 	   29.6280
    0.8164 	   60.3055 	    1.0000 	   48.0000 	   30.7941
    0.8164 	   60.9145 	    1.0000 	   48.0000 	   32.0122
    0.7401 	   61.5015 	    1.0000 	   48.0000 	   33.1862
    0.6943 	   62.1090 	    1.0000 	   48.0000 	   34.4013
    0.7248 	   62.7045 	    1.0000 	   48.0000 	   35.5924
    0.8621 	   63.2935 	    1.0000 	   48.0000 	   36.7704
    0.9689 	   63.9030 	    1.0000 	   48.0000 	   37.9895
    0.8774 	   64.5255 	    1.0000 	   48.0000 	   39.2346
    0.8469 	   65.1320 	    1.0000 	   48.0000 	   40.4477
    0.6485 	   65.7415 	    1.0000 	   48.0000 	   41.6667
    0.9384 	   66.3705 	    1.0000 	   48.0000 	   42.9248
    0.7248 	   67.0005 	    1.0000 	   48.0000 	   44.1849
    0.6943 	   67.6245 	    1.0000 	   48.0000 	   45.4319
    0.7401 	   68.2450 	    1.0000 	   48.0000 	   46.6730
    0.6332 	   68.8540 	    1.0000 	   48.0000 	   47.8901
    0.7553 	   69.4800 	    1.0000 	   48.0000 	   49.1431
    0.6485 	   70.0985 	    1.0000 	   48.0000 	   50.3802
    0.6027 	   70.7115 	    1.0000 	   48.0000 	   51.6063
    0.4654 	   71.3675 	    1.0000 	   48.0000 	   52.9174
    0.6332 	   71.9950 	    1.0000 	   48.0000 	   54.1734
    0.6027 	   72.6335 	    1.0000 	   48.0000 	   55.4505
    0.7401 	   73.2740 	    1.0000 	   48.0000 	   56.7316
    0.8316 	   73.9055 	    1.0000 	   48.0000 	   57.9947
    0.6638 	   74.5515 	    1.0000 	   48.0000 	   59.2867
    0.6027 	   75.1780 	    1.0000 	   49.0000 	    0.5398
    0.5570 	   75.8340 	    1.0000 	   49.0000 	    1.8519
    0.6332 	   76.4925 	    1.0000 	   49.0000 	    3.1679
    0.4959 	   77.1510 	    1.0000 	   49.0000 	    4.4850
    0.5722 	   77.8220 	    1.0000 	   49.0000 	    5.8271
    0.6332 	   78.4965 	    1.0000 	   49.0000 	    7.1762
    0.5417 	   79.1485 	    1.0000 	   49.0000 	    8.4803
    0.3738 	   79.8035 	    1.0000 	   49.0000 	    9.7903
    0.5112 	   80.4565 	    1.0000 	   49.0000 	   11.0964
    0.4807 	   81.1265 	    1.0000 	   49.0000 	   12.4365
    0.6180 	   81.8080 	    1.0000 	   49.0000 	   13.7996
    0.5875 	   82.4735 	    1.0000 	   49.0000 	   15.1306
    0.5264 	   83.1280 	    1.0000 	   49.0000 	   16.4397
    0.4959 	   83.7865 	    1.0000 	   49.0000 	   17.7568
    0.4807 	   84.4425 	    1.0000 	   49.0000 	   19.0689
    0.4654 	   85.1165 	    1.0000 	   49.0000 	   20.4159
    0.6027 	   85.7730 	    1.0000 	   49.0000 	   21.7290
    0.1755 	   86.4290 	    1.0000 	   49.0000 	   23.0411
    0.4501 	   87.0905 	    1.0000 	   49.0000 	   24.3642
    0.4501 	   87.7890 	    1.0000 	   49.0000 	   25.7612
    0.5417 	   88.4510 	    1.0000 	   49.0000 	   27.0853
    0.5417 	   89.1230 	    1.0000 	   49.0000 	   28.4294
    0.4196 	   89.8000 	    1.0000 	   49.0000 	   29.7835
    0.4196 	   90.5085 	    1.0000 	   49.0000 	   31.2006
    0.3433 	   91.1905 	    1.0000 	   49.0000 	   32.5646
    0.4807 	   91.7635 	    1.0000 	   49.0000 	   33.7107